time (s)	paretic Fap (N)	paretic Fvert (N)	paretic CPap (m)	non-paretic Fap (N)	non-paretic Fvert (N)	non-paretic CPap (m)
0.000000	10.857456	224.257965	0.245476	-13.839529	429.866638	0.186452
0.010000	11.114729	223.519562	0.245432	-13.791089	429.554504	0.186894
0.020000	11.058120	223.393875	0.245680	-13.963861	429.969177	0.187563
0.030000	10.988624	223.259476	0.245626	-13.917034	429.446075	0.188486
0.040000	10.935697	223.146896	0.245731	-13.778171	428.635315	0.189591
0.050000	10.995527	223.183502	0.245792	-13.523050	427.647919	0.190951
0.060000	11.169957	222.822311	0.245937	-12.534859	426.190186	0.192146
0.070000	10.849172	223.893600	0.245846	-12.369083	425.877563	0.193315
0.080000	10.970215	223.870468	0.245651	-11.745274	424.764099	0.194101
0.090000	10.801767	224.490967	0.245541	-11.563352	424.362061	0.194516
0.100000	10.652190	224.893982	0.245289	-11.743121	423.586609	0.194546
0.110000	10.574870	225.378616	0.245324	-12.103736	423.342316	0.194464
0.120000	10.502153	225.928772	0.245311	-12.165632	423.265198	0.194367
0.130000	10.793023	226.213776	0.245100	-12.021386	422.364807	0.194279
0.140000	10.579013	227.614838	0.245232	-12.329792	422.804596	0.194075
0.150000	10.795324	228.217667	0.244976	-12.053142	422.376373	0.193864
0.160000	10.672901	229.433044	0.244843	-12.345940	421.941986	0.193348
0.170000	10.728129	230.100037	0.244839	-12.481035	421.820343	0.192790
0.180000	10.579013	230.975754	0.244829	-12.619360	421.737946	0.192334
0.190000	10.784739	231.547104	0.244793	-12.894935	421.699829	0.191825
0.200000	10.881848	231.531128	0.245067	-12.861564	421.127502	0.191391
0.210000	10.824319	232.622162	0.245198	-13.179120	421.392151	0.191435
0.220000	10.940760	232.628647	0.244993	-12.807741	419.898193	0.191386
0.230000	10.856996	233.253738	0.245132	-12.862641	419.344025	0.191275
0.240000	11.013937	233.687149	0.245057	-12.813124	417.871216	0.190982
0.250000	11.003812	234.624771	0.244940	-13.248014	416.774139	0.190516
0.260000	10.857917	235.412949	0.244780	-13.553729	416.088928	0.190080
0.270000	10.933395	235.980621	0.244723	-13.312064	415.254456	0.189797
0.280000	10.550939	237.571594	0.244461	-13.500982	415.416595	0.189750
0.290000	10.738715	238.067047	0.244290	-13.365887	414.506897	0.189702
0.300000	10.740096	238.938797	0.244395	-13.401948	415.116180	0.189963
0.310000	10.782437	239.381317	0.244135	-13.110765	414.662201	0.190289
0.320000	10.690850	239.910553	0.244224	-13.116148	415.102264	0.190491
0.330000	10.775994	240.043320	0.244428	-13.230791	414.709625	0.190533
0.340000	10.964231	239.731476	0.244518	-13.229176	413.764526	0.190514
0.350000	10.600644	240.078369	0.244571	-13.657069	414.052704	0.190527
0.360000	11.065944	239.519104	0.245033	-13.697436	412.855408	0.190315
0.370000	10.921889	239.645676	0.244963	-14.018760	412.164581	0.190520
0.380000	11.042932	239.575195	0.244855	-13.892276	411.340210	0.190914
0.390000	10.880008	239.978622	0.244902	-13.706049	411.567841	0.191522
0.400000	10.874946	240.006744	0.244822	-13.337898	410.943542	0.191835
0.410000	11.046153	240.080978	0.245001	-13.146289	410.060730	0.191959
0.420000	10.748840	240.986252	0.244812	-13.361581	410.776550	0.192299
0.430000	10.914986	241.106979	0.244825	-13.245862	410.091217	0.192192
0.440000	10.649429	241.613647	0.244693	-13.355122	410.606384	0.192302
0.450000	10.835365	241.840866	0.244719	-13.246937	409.937317	0.192521
0.460000	10.654491	242.432449	0.244757	-13.617240	410.109375	0.192703
0.470000	10.691311	242.744598	0.244706	-13.623161	409.599152	0.193095
0.480000	10.961470	242.857254	0.244767	-13.398180	408.490234	0.193584
0.490000	10.727209	243.592392	0.244935	-13.427244	408.394653	0.194017
0.500000	10.869422	243.756653	0.245029	-13.250167	406.848663	0.194447
0.510000	10.755283	244.219635	0.244942	-13.154362	406.719421	0.195128
0.520000	10.986322	244.524002	0.245231	-13.068783	405.848694	0.195556
0.530000	10.827540	245.766388	0.245085	-13.171585	405.848419	0.196628
0.540000	10.861598	246.047165	0.245402	-12.802897	405.554199	0.197684
0.550000	11.096780	246.411499	0.245526	-12.347553	404.656128	0.198955
0.560000	10.932475	247.093292	0.245913	-12.405683	405.157257	0.200394
0.570000	11.444259	247.111435	0.246317	-11.695757	403.897156	0.201730
0.580000	11.346229	247.642014	0.246444	-11.305539	403.550354	0.203167
0.590000	11.472333	247.344635	0.246876	-10.792067	403.115692	0.204253
0.600000	11.528022	247.980820	0.247431	-10.539098	403.456482	0.205387
0.610000	11.680361	248.156876	0.247557	-10.137579	403.492523	0.206613
0.620000	11.891150	248.352524	0.247766	-9.626798	403.120087	0.207643
0.630000	11.831318	249.021866	0.248321	-9.651017	403.529663	0.208633
0.640000	12.138296	249.204239	0.248719	-9.292556	402.612183	0.209607
0.650000	12.249674	249.673569	0.249052	-9.231736	402.490814	0.210702
0.660000	12.536862	249.251480	0.249461	-8.490054	401.875336	0.211733
0.670000	12.549748	249.628082	0.249725	-8.327508	402.203217	0.212510
0.680000	12.570459	249.418747	0.249974	-8.235470	401.669067	0.212942
0.690000	12.693343	249.370056	0.250007	-8.097145	401.277985	0.213215
0.700000	12.404314	249.695221	0.250040	-8.389943	401.633148	0.213395
0.710000	12.586568	249.337311	0.250159	-8.357111	400.810974	0.213305
0.720000	12.407075	249.727402	0.250216	-8.655290	400.384003	0.213450
0.730000	12.442053	249.467087	0.249961	-8.564330	399.273529	0.213743
0.740000	12.046709	249.666855	0.250051	-8.612770	399.518921	0.213984
0.750000	12.195366	249.498718	0.250065	-8.461527	398.788971	0.214149
0.760000	12.231264	249.463394	0.249699	-8.286064	398.155853	0.214200
0.770000	11.832239	249.699005	0.249594	-8.571327	399.033386	0.214028
0.780000	11.976753	249.569870	0.249427	-8.484672	398.460327	0.213387
0.790000	11.695548	250.173676	0.249120	-8.926021	398.940430	0.212745
0.800000	11.802323	249.752426	0.248852	-9.223124	399.362183	0.211797
0.810000	11.641240	250.407867	0.248903	-9.673623	400.811951	0.211218
0.820000	11.757220	250.321014	0.248561	-9.694076	401.374603	0.210654
0.830000	11.930730	249.804047	0.248441	-9.663397	401.716400	0.209906
0.840000	11.681281	249.792740	0.248412	-10.072452	403.210175	0.209295
0.850000	11.835461	248.961945	0.248384	-10.064379	403.884827	0.208285
0.860000	11.710276	248.973663	0.248311	-10.408309	404.367859	0.207676
0.870000	11.839143	248.172760	0.248033	-10.230692	404.083832	0.207045
0.880000	11.539528	247.936096	0.247888	-10.571930	405.021820	0.206280
0.890000	11.500868	247.075287	0.247780	-10.960533	404.736053	0.205411
0.900000	11.522038	246.575668	0.247472	-10.850196	405.011566	0.204833
0.910000	11.251880	246.069427	0.247481	-11.075177	405.841278	0.204082
0.920000	11.260164	245.192902	0.247021	-11.037501	405.898285	0.203348
0.930000	11.127616	244.370621	0.247189	-11.360977	407.058105	0.202460
0.940000	11.310790	243.263702	0.247082	-11.227496	407.130432	0.201390
0.950000	10.896576	242.927658	0.246807	-11.681224	408.500916	0.200738
0.960000	11.085734	241.801682	0.246796	-11.609101	408.999756	0.200025
0.970000	10.961470	241.178329	0.246569	-11.312536	409.343872	0.199544
0.980000	10.889213	240.926483	0.246332	-11.517603	410.654205	0.199052
0.990000	11.146025	240.106308	0.246484	-11.512220	411.280334	0.198251
1.000000	11.003812	239.575684	0.246420	-11.796406	412.621033	0.197719
1.010000	11.212299	238.263885	0.246372	-12.088665	413.033600	0.196875
1.020000	10.802688	238.412369	0.246253	-12.432594	414.100098	0.196612
1.030000	10.997369	237.432800	0.246249	-12.511176	414.008240	0.196159
1.040000	10.900258	236.851395	0.245862	-12.382539	413.639557	0.196029
1.050000	10.748380	236.733124	0.245953	-12.557463	414.245667	0.195973
1.060000	10.996448	236.275269	0.245796	-12.367469	413.570282	0.195787
1.070000	10.728590	236.161148	0.245634	-12.477268	413.937653	0.195784
1.080000	10.937998	235.296341	0.245524	-12.171014	414.068817	0.195577
1.090000	10.539892	235.095367	0.245482	-12.380386	415.917969	0.195453
1.100000	10.656793	234.227081	0.245598	-12.260360	416.296722	0.195217
1.110000	10.754824	233.813629	0.245437	-11.933655	416.814178	0.195166
1.120000	10.596962	233.604538	0.245275	-11.932040	417.527039	0.194865
1.130000	10.675202	232.668106	0.245144	-12.254979	416.594635	0.193628
1.140000	10.503074	232.470886	0.245174	-13.106460	417.064636	0.192380
1.150000	10.725828	231.626816	0.244851	-13.328210	417.254242	0.191136
1.160000	10.433578	231.831955	0.244656	-13.879359	418.959167	0.190102
1.170000	10.556461	231.193619	0.244781	-13.764178	419.144806	0.189097
1.180000	10.578093	231.329727	0.244539	-13.971396	419.514252	0.188471
1.190000	10.278017	231.184357	0.244180	-14.182921	420.690796	0.187899
1.200000	10.358099	230.398407	0.244298	-13.923494	421.323639	0.187367
1.210000	10.293205	230.337936	0.244529	-14.134480	422.404114	0.187003
1.220000	10.761267	229.678009	0.244346	-13.989158	422.372009	0.186494
1.230000	10.343371	230.095413	0.244498	-14.223827	423.636383	0.186339
1.240000	10.642065	229.368561	0.244488	-14.180230	423.805115	0.186101
1.250000	10.723988	229.381729	0.244491	-14.355692	423.730255	0.186195
1.260000	10.588218	229.553284	0.244447	-14.140939	424.314728	0.186852
1.270000	10.936617	229.397247	0.244752	-13.687748	424.377350	0.187434
1.280000	10.815114	230.018662	0.244764	-13.443392	424.371613	0.188447
1.290000	11.006113	229.779480	0.244551	-12.532167	423.871704	0.189755
1.300000	10.732272	230.290848	0.244882	-12.032151	424.657745	0.191197
1.310000	11.048915	229.884521	0.244907	-11.238798	423.575348	0.192461
1.320000	10.996448	229.537537	0.244954	-10.680653	423.318024	0.193805
1.330000	11.018999	229.225647	0.245194	-10.536408	423.326782	0.194936
1.340000	11.132678	228.852875	0.245298	-10.082140	422.646393	0.195946
1.350000	10.997369	229.012573	0.245294	-9.815716	422.472534	0.196954
1.360000	11.395934	228.033783	0.245517	-9.396434	421.618378	0.197299
1.370000	11.094018	228.546021	0.245482	-9.578357	421.697540	0.197523
1.380000	11.386269	228.015701	0.245531	-9.775887	420.284241	0.197140
1.390000	11.314932	227.751831	0.245443	-10.129504	420.047241	0.196670
1.400000	11.102303	228.233017	0.245123	-10.427685	419.969177	0.196170
1.410000	11.233931	228.319931	0.245097	-10.412614	419.677765	0.195575
1.420000	10.986322	229.163574	0.244705	-10.376015	419.940887	0.195290
1.430000	11.128076	229.124496	0.244505	-10.237690	419.197296	0.194722
1.440000	10.697754	230.407150	0.244268	-10.598304	420.208466	0.194370
1.450000	10.678424	231.012070	0.243785	-10.307660	419.657349	0.193862
1.460000	10.649429	231.751801	0.243531	-10.652665	419.313568	0.193147
1.470000	10.422532	232.782379	0.243206	-10.869035	419.132355	0.192441
1.480000	10.568427	233.413116	0.243026	-10.868496	418.748108	0.191709
1.490000	10.383872	234.529495	0.242617	-11.456244	418.033295	0.190695
1.500000	10.754824	235.176361	0.242442	-11.652160	416.302979	0.189455
1.510000	10.522404	236.832596	0.242493	-12.599446	416.307434	0.188093
1.520000	10.779676	237.806305	0.242148	-12.746922	414.522736	0.186718
1.530000	10.783818	239.223587	0.241978	-13.182888	413.110413	0.185309
1.540000	10.637923	240.492157	0.241781	-13.380957	411.842865	0.184073
1.550000	10.677963	241.609467	0.241336	-13.499368	409.526459	0.182464
1.560000	10.583615	242.879486	0.241286	-14.107568	408.319672	0.180764
1.570000	10.701896	243.720291	0.240958	-14.161930	406.469818	0.179121
1.580000	10.523324	245.662415	0.240890	-14.682937	406.204773	0.177646
1.590000	10.739175	246.476334	0.240566	-14.421895	404.825623	0.176054
1.600000	10.759426	247.763504	0.240509	-14.585518	404.016510	0.174497
1.610000	10.551398	248.680115	0.240338	-15.110831	404.231232	0.173119
1.620000	10.622735	249.415527	0.240276	-15.312129	404.066528	0.171909
1.630000	10.544035	250.007172	0.240263	-15.647447	405.358551	0.171273
1.640000	10.804529	250.063461	0.240173	-15.614077	404.731750	0.170779
1.650000	10.648508	250.923126	0.240374	-15.891804	405.161072	0.170405
1.660000	10.929254	250.737488	0.240256	-16.069958	404.068237	0.169876
1.670000	10.903020	250.902740	0.240414	-16.809487	403.502106	0.169232
1.680000	10.895656	250.851440	0.240395	-17.098517	403.003479	0.168994
1.690000	10.905781	250.960861	0.240309	-17.420379	401.847961	0.168991
1.700000	10.650809	251.282730	0.240300	-17.873570	400.897644	0.169643
1.710000	11.009795	251.003113	0.240253	-17.297662	399.132141	0.170608
1.720000	10.641145	251.998642	0.240168	-16.957500	398.478119	0.171931
1.730000	10.773232	251.852478	0.240166	-16.435954	397.072632	0.172835
1.740000	10.606167	252.089645	0.240073	-16.153922	396.904877	0.173847
1.750000	10.616292	252.675278	0.240129	-15.881039	396.705780	0.174973
1.760000	10.660934	252.646347	0.240290	-15.905797	397.001038	0.176208
1.770000	10.660014	253.069656	0.240347	-15.605464	397.893250	0.178313
1.780000	10.884150	252.656555	0.240683	-14.588208	397.655090	0.180294
1.790000	10.812813	253.413925	0.241046	-14.149550	398.727203	0.182422
1.800000	11.226107	252.966003	0.241533	-13.735652	398.538574	0.184104
1.810000	11.245437	253.017426	0.241747	-13.133909	399.360596	0.185926
1.820000	11.610404	252.821121	0.242145	-12.674799	399.675018	0.187072
1.830000	11.756760	252.815079	0.242404	-12.375542	399.568268	0.188034
1.840000	11.823034	253.149597	0.242719	-12.463812	399.851898	0.188682
1.850000	12.001606	253.120972	0.242579	-12.060138	399.421234	0.189015
1.860000	11.759521	254.225235	0.242750	-12.256593	399.761749	0.189243
1.870000	11.961565	254.420746	0.242739	-12.181779	397.600433	0.188460
1.880000	11.807386	255.439026	0.242581	-12.874482	395.689514	0.187150
1.890000	11.646303	256.285095	0.242555	-13.649534	394.502655	0.185629
1.900000	11.794960	257.165466	0.242509	-14.074737	393.736328	0.184245
1.910000	11.583711	257.993103	0.242494	-14.445040	393.655060	0.183288
1.920000	11.748476	258.596954	0.242268	-14.158700	392.583984	0.182650
1.930000	11.553335	259.761414	0.242444	-14.434813	393.504822	0.182469
1.940000	11.634336	259.549042	0.242393	-14.088730	393.415314	0.182122
1.950000	11.465429	259.839111	0.242451	-14.243203	394.045837	0.181874
1.960000	11.633877	259.525055	0.242728	-14.489174	394.887604	0.181565
1.970000	11.705673	258.931946	0.242848	-14.918682	395.982605	0.181403
1.980000	11.488441	258.146240	0.243106	-15.251847	397.248871	0.181687
1.990000	11.832699	256.825897	0.243414	-14.970891	397.785706	0.181894
2.000000	11.671156	256.163483	0.243831	-15.447763	399.380371	0.182479
2.010000	11.905877	254.420334	0.244115	-15.028481	399.417358	0.182928
2.020000	12.014953	253.657272	0.244383	-14.973582	400.222595	0.183437
2.030000	12.027379	252.657745	0.244525	-14.928909	400.897095	0.183799
2.040000	12.032903	251.741409	0.244597	-14.898768	401.611237	0.184368
2.050000	11.898513	251.149857	0.244839	-14.766901	402.339111	0.184952
2.060000	12.064658	249.991745	0.244835	-14.206064	402.323486	0.185499
2.070000	11.811989	250.025085	0.244937	-14.389063	403.382965	0.186135
2.080000	11.963866	249.144989	0.245038	-14.121563	403.047882	0.186580
2.090000	11.815670	249.050797	0.244940	-14.283032	403.621277	0.187168
2.100000	11.811528	248.454056	0.244981	-14.304023	403.905792	0.187627
2.110000	11.585551	248.122070	0.245105	-14.335779	404.093353	0.188245
2.120000	11.620990	247.991852	0.245237	-14.319093	404.681244	0.189191
2.130000	11.897132	247.166321	0.245304	-13.612935	404.584229	0.190130
2.140000	11.771487	247.064194	0.245854	-13.520897	405.925903	0.191162
2.150000	11.993321	246.200378	0.245979	-13.257165	406.006439	0.191850
2.160000	11.975833	245.781723	0.246230	-13.183965	407.008850	0.192837
2.170000	11.964327	245.050461	0.246600	-12.690407	407.522522	0.193778
2.180000	12.163150	244.770569	0.246776	-12.416448	408.063293	0.194688
2.190000	12.070182	244.168365	0.247064	-12.403530	408.711182	0.195531
2.200000	12.274527	243.309143	0.247428	-11.826009	408.664642	0.196256
2.210000	12.252436	243.617706	0.247585	-11.730203	409.788605	0.196956
2.220000	12.606818	243.139206	0.247683	-11.585419	409.374023	0.197190
2.230000	12.337580	243.127167	0.247754	-11.781335	409.791901	0.197562
2.240000	12.355068	243.089935	0.247698	-11.798558	409.718445	0.197636
2.250000	12.242770	243.170288	0.247644	-12.006316	409.700073	0.197882
2.260000	12.262561	243.012253	0.247891	-12.105350	409.685730	0.197998
2.270000	12.385444	242.424057	0.247945	-12.005778	409.172791	0.198141
2.280000	12.056834	242.290314	0.248082	-12.240446	409.888000	0.198647
2.290000	12.364273	241.295135	0.248179	-11.760344	409.745026	0.199248
2.300000	12.142439	240.716995	0.248327	-11.729126	410.780273	0.200315
2.310000	12.244612	239.655396	0.248465	-11.033733	411.955688	0.201541
2.320000	12.325153	238.396332	0.248812	-10.650512	413.718140	0.202859
2.330000	12.329756	236.701324	0.249230	-10.202704	415.815186	0.203998
2.340000	12.411677	234.866364	0.249273	-9.584815	417.028381	0.205113
2.350000	12.151644	233.787964	0.249566	-9.121937	419.379608	0.206153
2.360000	12.195366	231.524826	0.249602	-8.478213	420.559418	0.206654
2.370000	11.881484	229.764801	0.249772	-8.684355	422.592041	0.207025
2.380000	11.883326	227.443085	0.250039	-8.588012	424.223022	0.207171
2.390000	11.670236	225.580338	0.250134	-8.751634	425.634644	0.207268
2.400000	11.635258	223.830917	0.250177	-9.135931	426.871185	0.207273
2.410000	11.799561	222.125595	0.250260	-8.896956	427.333557	0.207351
2.420000	11.454844	221.418976	0.250359	-9.316238	428.846191	0.207536
2.430000	11.537227	220.087585	0.250083	-9.308165	428.664795	0.207612
2.440000	11.424008	220.016418	0.249953	-9.499774	429.526062	0.207704
2.450000	11.275812	219.285172	0.249692	-9.479323	429.819000	0.207677
2.460000	11.055819	219.265030	0.249384	-9.818408	430.959534	0.207779
2.470000	10.960089	219.170273	0.249029	-9.750590	432.055634	0.207874
2.480000	11.078370	218.923798	0.248745	-9.602038	432.174438	0.208003
2.490000	10.538052	219.444946	0.248533	-9.909906	433.217651	0.208167
2.500000	10.858377	219.220184	0.248286	-9.526148	432.914764	0.208298
2.510000	10.723988	219.644470	0.248103	-9.532068	432.947601	0.208285
2.520000	10.808210	219.480896	0.247905	-9.469633	432.589630	0.208075
2.530000	10.724447	220.127945	0.247727	-9.646174	432.050812	0.207806
2.540000	10.818336	220.594589	0.247489	-9.683311	431.396332	0.207258
2.550000	10.953646	221.280182	0.247187	-9.818946	430.232361	0.206694
2.560000	10.992766	223.205460	0.246930	-10.077835	430.475708	0.206328
2.570000	11.248198	224.492477	0.246591	-9.772119	429.093353	0.205864
2.580000	11.146485	226.535080	0.246135	-10.017553	428.466614	0.205357
2.590000	11.385809	228.191498	0.245707	-9.932512	426.740448	0.204839
2.600000	11.182844	230.046844	0.245373	-10.133811	425.374390	0.204268
2.610000	11.196191	231.833588	0.244884	-10.265139	423.316528	0.203768
2.620000	11.335643	233.178757	0.244457	-10.196246	420.883636	0.203283
2.630000	10.995988	235.009125	0.244235	-10.360406	419.279480	0.202899
2.640000	10.947203	235.776932	0.243691	-10.195707	416.855042	0.202527
2.650000	11.004272	237.282562	0.243689	-10.300124	415.483398	0.202263
2.660000	11.144184	237.858200	0.243490	-9.751667	413.713440	0.201893
2.670000	11.043853	238.819687	0.243407	-9.998177	412.751251	0.201382
2.680000	11.107825	239.415421	0.243416	-10.236075	411.669159	0.200694
2.690000	11.411121	239.358856	0.243341	-10.140807	410.729889	0.199818
2.700000	11.116110	239.822067	0.243497	-10.646207	411.347961	0.198796
2.710000	11.474175	239.244507	0.243706	-10.901328	411.433411	0.197689
2.720000	11.530784	239.245193	0.244020	-11.415338	412.766449	0.196793
2.730000	11.717179	238.480881	0.243968	-11.465932	413.151886	0.195887
2.740000	11.705673	238.503159	0.244134	-11.524061	413.842926	0.195016
2.750000	11.872279	238.198425	0.244007	-11.705445	413.422638	0.193773
2.760000	11.884246	237.727005	0.243975	-12.177474	412.870667	0.192422
2.770000	11.768726	238.200027	0.243991	-12.834115	413.914642	0.191246
2.780000	11.838682	237.680969	0.243757	-13.056943	413.945404	0.190060
2.790000	11.607183	237.858170	0.243649	-13.462768	414.847534	0.188920
2.800000	11.762282	237.539352	0.243451	-13.600555	414.967255	0.188074
2.810000	11.595217	237.677032	0.243506	-13.863750	415.802795	0.187279
2.820000	11.528482	236.884598	0.243325	-13.827150	416.092194	0.186484
2.830000	11.610865	235.923416	0.243281	-13.922956	416.324341	0.185781
2.840000	11.445640	235.578156	0.243324	-14.283032	417.504944	0.185086
2.850000	11.478777	234.249558	0.243204	-14.278187	417.202545	0.184337
2.860000	11.422168	233.698380	0.243277	-14.631805	417.937836	0.183634
2.870000	11.520198	232.658417	0.243076	-14.642570	417.872162	0.182858
2.880000	11.293301	232.030075	0.243070	-14.929985	418.860748	0.182208
2.890000	11.296522	230.964996	0.242987	-14.996187	419.254395	0.181508
2.900000	11.364637	230.054459	0.242884	-15.085533	419.779327	0.180911
2.910000	11.052136	229.942230	0.242741	-15.632915	421.597961	0.180919
2.920000	11.162133	228.744965	0.242653	-15.286294	422.771057	0.181577
2.930000	11.001970	227.709488	0.242892	-14.622656	424.733551	0.182701
2.940000	11.182844	225.652695	0.242977	-13.782477	425.780365	0.183773
2.950000	11.049835	224.295670	0.243148	-13.331978	427.628113	0.184832
2.960000	11.206316	222.075912	0.243423	-13.048868	429.042450	0.185509
2.970000	11.274431	219.583817	0.243638	-12.840035	431.168579	0.185935
2.980000	11.195730	217.734253	0.243997	-13.283537	434.503204	0.186574
2.990000	11.348989	215.200958	0.244133	-13.074704	436.485840	0.187243
3.000000	10.907622	213.595276	0.244278	-13.406254	438.152496	0.188103
3.010000	11.186986	211.233063	0.244260	-12.250672	439.037476	0.188979
3.020000	10.779216	209.720184	0.244433	-12.285658	440.289459	0.189697
3.030000	10.997369	207.973557	0.244302	-11.532673	441.336426	0.190438
3.040000	10.909003	206.539780	0.244183	-11.046650	441.565552	0.190694
3.050000	10.518261	206.147705	0.243903	-11.425565	443.063629	0.190846
3.060000	10.758965	204.999619	0.243403	-11.280242	443.363831	0.190560
3.070000	9.844934	204.864548	0.243172	-11.872834	444.210358	0.190089
3.080000	10.307472	203.920868	0.242952	-11.876602	443.974426	0.189271
3.090000	10.186430	204.128006	0.242556	-12.592987	444.251617	0.188351
3.100000	9.784183	203.528305	0.242343	-12.991278	444.349487	0.187287
3.110000	10.466254	203.287613	0.242007	-12.971363	443.879730	0.185999
3.120000	9.905226	204.128189	0.241644	-13.864289	444.705444	0.184996
3.130000	10.037774	204.203873	0.241174	-14.024143	444.450592	0.184003
3.140000	10.112792	205.339554	0.240826	-13.850832	444.870483	0.183298
3.150000	9.869787	205.203110	0.240326	-14.012840	444.330048	0.182492
3.160000	9.892339	206.101761	0.240193	-14.111336	445.234344	0.181980
3.170000	10.046978	206.458969	0.239985	-14.051054	444.846283	0.181258
3.180000	9.940204	206.579941	0.239762	-14.324476	444.260223	0.180439
3.190000	10.014762	207.472260	0.239777	-14.439119	444.540619	0.179713
3.200000	10.117855	207.851730	0.239688	-14.616734	443.529694	0.178905
3.210000	10.100366	208.579102	0.239571	-14.962279	443.430420	0.178140
3.220000	10.357638	208.837250	0.239334	-14.601126	442.085663	0.177418
3.230000	10.104048	210.004288	0.239515	-15.049472	441.822174	0.177004
3.240000	10.295506	210.356888	0.239316	-14.603279	440.475952	0.176467
3.250000	10.293205	210.621918	0.239343	-14.485407	439.625244	0.175894
3.260000	10.411026	211.663010	0.239432	-14.829336	439.550781	0.175477
3.270000	10.576251	212.117386	0.239369	-14.537076	439.062134	0.174904
3.280000	10.477760	213.277191	0.239269	-14.947208	439.468414	0.174754
3.290000	10.763568	213.743042	0.239271	-14.546764	438.752777	0.174458
3.300000	10.600644	214.951218	0.239260	-14.829874	439.011810	0.174353
3.310000	10.737795	214.893524	0.239361	-15.113522	438.119202	0.174092
3.320000	11.011636	214.826553	0.239540	-15.017717	437.404968	0.173918
3.330000	10.690390	215.163223	0.239618	-15.489745	436.950317	0.173919
3.340000	10.907622	215.075455	0.239535	-15.461219	436.049072	0.174113
3.350000	10.725369	215.647232	0.239690	-15.195872	435.662415	0.174658
3.360000	10.881848	215.445328	0.239510	-14.634497	433.933929	0.175164
3.370000	10.816956	216.344284	0.239560	-14.592515	433.555939	0.175769
3.380000	10.856075	216.429062	0.239445	-14.269038	432.472534	0.176190
3.390000	10.687168	216.714798	0.239202	-14.173771	431.882935	0.176480
3.400000	10.460272	217.352936	0.239155	-14.383681	431.800598	0.176935
3.410000	10.376048	217.493210	0.239135	-14.374531	431.008240	0.177339
3.420000	10.414708	218.354782	0.239064	-14.598435	430.803741	0.178001
3.430000	10.698215	218.698608	0.238961	-14.199606	429.620178	0.178576
3.440000	10.484203	220.344574	0.239080	-14.190456	429.647552	0.179426
3.450000	10.622735	220.903229	0.238896	-13.831456	428.632446	0.179944
3.460000	10.642065	221.765457	0.238902	-13.614011	427.872803	0.180308
3.470000	10.683487	222.930130	0.239061	-13.545656	427.704468	0.180575
3.480000	10.868502	223.449387	0.239159	-13.745340	426.640381	0.180560
3.490000	10.737334	224.640167	0.239220	-14.097880	426.515717	0.180966
3.500000	11.000130	225.080475	0.239232	-13.710892	424.942657	0.181510
3.510000	10.816956	226.976883	0.239336	-13.842759	424.693817	0.182275
3.520000	10.953646	228.003815	0.239314	-13.484836	423.060791	0.182954
3.530000	11.174100	229.030579	0.239365	-12.948757	422.179810	0.183541
3.540000	10.992306	230.331573	0.239305	-12.945529	421.502594	0.183988
3.550000	11.125774	230.633286	0.239433	-12.767373	420.688812	0.184209
3.560000	11.056279	231.520309	0.239745	-12.885785	420.464081	0.184292
3.570000	11.288239	231.613327	0.239656	-12.943376	419.076874	0.184023
3.580000	11.051216	232.833344	0.239807	-13.457385	419.182861	0.183841
3.590000	11.302505	233.191696	0.239796	-13.280308	418.073120	0.183654
3.600000	11.246357	233.919327	0.239783	-13.205494	416.876068	0.183326
3.610000	11.278113	234.916061	0.239802	-13.704434	416.255493	0.183004
3.620000	11.329659	235.548065	0.239889	-13.658684	415.367279	0.182748
3.630000	11.259704	236.345276	0.239887	-13.929952	415.411133	0.182544
3.640000	11.366479	236.486725	0.239860	-13.905732	414.120880	0.182335
3.650000	11.036489	237.432785	0.240040	-14.271729	414.717834	0.182722
3.660000	11.403758	237.336990	0.240093	-13.893353	414.058258	0.183035
3.670000	11.354973	237.395264	0.240236	-13.781401	413.627716	0.183636
3.680000	11.589694	237.796509	0.240423	-13.372345	413.897675	0.184303
3.690000	11.671156	237.674698	0.240661	-12.813662	413.801331	0.184691
3.700000	11.549192	238.042404	0.240713	-13.212491	414.512634	0.185130
3.710000	11.858932	237.739639	0.240743	-12.683948	414.181030	0.185367
3.720000	11.561159	238.083755	0.240936	-12.946067	415.052582	0.185579
3.730000	11.753538	237.471832	0.240975	-12.891705	414.922668	0.185596
3.740000	11.911400	237.061707	0.241143	-12.782444	415.095581	0.185680
3.750000	11.811528	236.848160	0.241203	-13.049945	415.282135	0.185832
3.760000	11.873660	236.294998	0.241291	-13.079009	414.962280	0.185850
3.770000	11.691867	236.048447	0.241428	-13.124221	415.298920	0.185923
3.780000	11.859853	235.171600	0.241313	-13.026802	414.529144	0.185797
3.790000	11.449322	235.492218	0.241323	-13.421324	415.127960	0.185935
3.800000	11.608563	235.036316	0.241227	-13.298069	414.590210	0.185968
3.810000	11.561159	234.874069	0.241203	-13.469227	414.550293	0.186096
3.820000	11.253261	235.004272	0.241101	-13.738342	415.090118	0.186796
3.830000	11.212299	234.791687	0.241185	-13.293226	415.483429	0.187785
3.840000	11.118411	234.669815	0.241267	-13.144674	415.916443	0.188976
3.850000	11.366018	233.714966	0.241413	-12.482650	415.550934	0.190033
3.860000	11.176401	234.050095	0.241647	-12.439053	416.557831	0.191403
3.870000	11.431372	233.181534	0.241901	-11.890058	416.456360	0.192424
3.880000	11.435054	232.641357	0.242010	-11.470776	417.033417	0.193347
3.890000	11.430451	232.442474	0.242197	-11.423412	417.769104	0.194310
3.900000	11.433213	231.819977	0.242341	-11.272707	418.354858	0.194893
3.910000	11.281335	231.641449	0.242532	-11.323301	419.231598	0.195545
3.920000	11.530323	230.861832	0.242689	-10.958918	419.067627	0.196054
3.930000	11.297443	231.068253	0.242861	-11.337833	420.283875	0.196633
3.940000	11.573586	230.296478	0.242987	-11.188205	420.221161	0.196966
3.950000	11.671156	229.935410	0.243102	-11.178516	420.682129	0.197283
3.960000	11.660110	229.914810	0.243173	-11.326530	420.929321	0.197382
3.970000	11.612705	229.844284	0.243083	-11.500378	420.641296	0.197430
3.980000	11.511913	230.255325	0.243105	-11.581651	420.658447	0.197497
3.990000	11.504550	230.413315	0.242756	-11.311460	419.445557	0.197510
4.000000	11.178701	231.626480	0.242742	-11.605334	419.669098	0.197817
4.010000	11.507311	231.755234	0.242611	-10.984754	418.609161	0.197924
4.020000	11.335643	232.075394	0.242697	-10.891101	418.366058	0.197969
4.030000	11.393172	232.458267	0.242631	-11.026736	418.217926	0.197766
4.040000	11.496265	232.695816	0.242828	-11.115544	417.663300	0.197280
4.050000	11.339325	233.076523	0.242722	-11.648393	416.834106	0.196412
4.060000	11.526641	233.093674	0.242553	-11.994475	415.400177	0.195260
4.070000	11.226107	233.692596	0.242840	-12.802359	416.227539	0.194340
4.080000	11.522960	233.399338	0.242896	-12.710860	415.911285	0.193435
4.090000	11.483379	233.492920	0.242854	-12.671031	416.069672	0.192747
4.100000	11.609484	233.755188	0.243074	-12.704939	416.293304	0.192155
4.110000	11.706594	233.680008	0.243158	-12.754457	416.577942	0.191570
4.120000	11.486140	233.789963	0.243179	-13.017114	417.616821	0.191050
4.130000	11.799102	233.353546	0.243286	-12.760377	417.941986	0.190760
4.140000	11.457605	233.701569	0.243456	-13.012807	420.011108	0.190972
4.150000	11.717179	232.822540	0.243549	-12.636584	420.213104	0.191123
4.160000	11.758601	232.205063	0.243764	-12.539164	421.029663	0.191361
4.170000	11.875041	231.635620	0.244054	-12.566614	421.450226	0.191479
4.180000	11.711196	230.397934	0.244111	-12.598907	421.758789	0.191547
4.190000	11.814289	229.553391	0.244610	-12.946605	422.241913	0.191582
4.200000	12.077545	228.121414	0.244839	-12.777600	421.512848	0.191602
4.210000	11.860773	227.863144	0.244936	-13.365349	422.277771	0.191841
4.220000	11.858472	226.577988	0.244970	-12.931534	421.982910	0.192162
4.230000	11.840063	225.858200	0.244944	-12.808279	422.576447	0.192447
4.240000	11.683582	225.341385	0.245088	-12.720548	422.908081	0.192616
4.250000	11.685423	225.040848	0.244871	-12.472424	422.857330	0.192679
4.260000	11.475554	224.800278	0.244983	-12.965443	422.811829	0.192107
4.270000	11.511454	224.324097	0.244724	-13.188270	422.170654	0.191441
4.280000	11.102763	224.810074	0.244664	-13.840068	423.371002	0.191039
4.290000	11.336563	224.568146	0.244511	-13.877744	422.549225	0.190631
4.300000	11.133598	224.524506	0.244608	-14.171080	422.566010	0.190494
4.310000	11.272591	224.380753	0.244655	-14.084963	422.793793	0.190584
4.320000	11.237152	224.186661	0.244746	-13.967628	423.144257	0.190957
4.330000	11.122553	224.255356	0.244734	-13.684520	423.872711	0.191595
4.340000	11.461287	223.807755	0.244853	-12.876635	423.678192	0.192235
4.350000	11.274892	224.408386	0.245002	-12.912696	425.364319	0.192781
4.360000	11.442418	223.972733	0.244908	-12.653269	425.805847	0.193100
4.370000	11.351751	224.117889	0.244935	-12.639813	426.837524	0.193355
4.380000	11.378905	224.142624	0.244829	-12.683410	427.637024	0.193638
4.390000	11.275352	223.843674	0.244826	-12.711936	428.136383	0.193769
4.400000	11.244976	223.810165	0.245015	-12.857796	428.541321	0.193999
4.410000	11.539528	222.734726	0.245104	-12.587067	428.001373	0.194128
4.420000	11.175941	222.804550	0.245291	-12.965982	428.998138	0.194360
4.430000	11.478316	221.613464	0.245391	-12.429903	428.640686	0.194684
4.440000	11.461748	221.188095	0.245472	-12.494491	428.710144	0.194941
4.450000	11.375223	220.314224	0.245752	-12.483726	428.760712	0.194983
4.460000	11.296522	219.710281	0.245674	-12.341633	429.154388	0.195199
4.470000	11.179623	219.740601	0.245646	-12.489108	429.552979	0.195321
4.480000	11.281335	218.924515	0.245586	-12.317414	429.510406	0.195646
4.490000	11.042011	219.434738	0.245636	-12.285658	430.555542	0.196297
4.500000	11.280874	218.877670	0.245602	-11.670459	430.015411	0.196847
4.510000	11.236232	218.785828	0.245490	-11.653236	430.113525	0.197110
4.520000	11.135440	218.804077	0.245456	-11.597799	429.772247	0.197121
4.530000	11.007494	218.856277	0.245311	-11.686069	429.781342	0.197072
4.540000	10.881848	218.997894	0.245164	-12.080053	430.016632	0.196835
4.550000	10.964231	218.586960	0.244939	-11.852920	429.551147	0.196679
4.560000	10.677043	219.178909	0.245195	-12.437439	429.935455	0.196596
4.570000	10.851473	218.864655	0.244918	-12.223223	429.005096	0.196510
4.580000	10.748380	218.897003	0.244897	-12.129570	429.702026	0.196553
4.590000	10.990005	219.120621	0.245146	-12.082206	429.793457	0.196411
4.600000	10.912684	219.536972	0.244905	-12.052603	430.166321	0.196284
4.610000	11.017619	220.285889	0.244843	-12.193082	430.550781	0.196119
4.620000	10.960089	220.266891	0.244586	-11.912125	430.610809	0.195765
4.630000	10.671981	221.587784	0.244265	-12.459506	431.167572	0.195612
4.640000	10.665998	221.348846	0.244151	-12.444436	430.283844	0.195404
4.650000	10.613991	221.706024	0.244174	-12.597832	429.912537	0.195261
4.660000	10.673821	221.722992	0.244103	-12.657574	428.659454	0.195308
4.670000	10.623196	221.931229	0.244087	-12.514944	427.847656	0.195454
4.680000	10.736414	222.209625	0.244195	-12.516559	427.132568	0.195503
4.690000	10.807751	221.768555	0.244030	-12.203846	426.237915	0.195475
4.700000	10.584996	222.607895	0.244192	-12.535397	426.766083	0.195486
4.710000	10.721226	222.509506	0.243961	-12.313646	426.010010	0.195412
4.720000	10.471777	223.107864	0.243729	-12.574688	426.195496	0.195295
4.730000	10.429895	223.656113	0.243577	-12.558540	425.899780	0.195363
4.740000	10.372366	224.387619	0.243533	-12.388459	425.727692	0.195568
4.750000	10.320820	224.768967	0.243573	-12.501488	425.463318	0.195725
4.760000	10.601564	224.733459	0.243411	-12.136030	424.639709	0.195805
4.770000	10.378349	225.616577	0.243679	-12.561231	425.126190	0.196011
4.780000	10.503533	225.585571	0.243526	-12.415910	424.507141	0.196044
4.790000	10.417009	226.041824	0.243509	-12.523017	424.336639	0.196251
4.800000	10.614911	226.479736	0.243707	-12.402992	423.983765	0.196504
4.810000	10.602024	227.206985	0.243664	-12.495029	423.683014	0.196976
4.820000	10.639764	227.731003	0.243864	-12.243676	423.291260	0.197670
4.830000	10.857456	228.003845	0.243976	-11.716748	422.365204	0.198241
4.840000	10.612610	228.954193	0.244114	-11.832467	422.947998	0.198918
4.850000	10.810512	229.100784	0.244108	-11.147300	421.937317	0.199275
4.860000	10.940299	230.074295	0.244270	-11.370665	421.428314	0.199442
4.870000	10.941680	230.451126	0.244145	-11.410494	420.802094	0.199374
4.880000	10.939838	231.409103	0.244318	-11.444403	420.631714	0.199282
4.890000	10.995068	232.258331	0.244422	-11.426103	420.211517	0.199173
4.900000	11.168576	232.452209	0.244232	-11.311460	418.859680	0.198924
4.910000	10.937998	233.611282	0.244396	-11.609101	418.848389	0.198889
4.920000	11.203094	233.779587	0.244444	-11.324377	417.781433	0.198723
4.930000	11.065023	234.457016	0.244338	-11.316304	417.209381	0.198505
4.940000	11.125774	234.682281	0.244300	-11.313074	416.324646	0.198093
4.950000	11.079290	235.290314	0.244372	-11.514911	416.143158	0.197730
4.960000	11.026824	235.621719	0.244341	-11.664001	415.806946	0.197291
4.970000	11.196651	235.650009	0.244188	-11.664001	415.300476	0.196911
4.980000	10.865741	236.601883	0.244354	-12.023539	415.794128	0.196873
4.990000	11.117030	236.574249	0.244212	-11.783488	414.922058	0.196621
5.000000	11.046614	237.009583	0.244163	-11.866914	414.787170	0.196560
5.010000	11.108746	237.055145	0.244220	-11.585958	414.285156	0.196312
5.020000	11.051677	237.465057	0.244096	-11.771647	414.066895	0.196069
5.030000	11.033267	237.925247	0.244016	-11.908357	413.299683	0.195535
5.040000	11.111967	237.924316	0.243903	-11.878755	412.723877	0.194951
5.050000	10.811433	238.806061	0.243898	-12.704939	413.033142	0.194332
5.060000	10.855155	238.817261	0.243680	-12.846494	412.183075	0.193686
5.070000	10.856075	239.614670	0.243627	-13.194729	412.076569	0.193209
5.080000	10.825700	239.629913	0.243497	-13.213567	411.524811	0.192711
5.090000	10.747000	240.121384	0.243457	-13.599479	411.568054	0.192352
5.100000	10.741016	240.293091	0.243488	-13.631234	411.542572	0.192065
5.110000	10.791642	240.217422	0.243459	-13.337360	411.074127	0.191624
5.120000	10.586837	240.799240	0.243454	-13.856214	411.557892	0.191291
5.130000	10.728590	240.456680	0.243415	-13.867517	410.823578	0.190708
5.140000	10.549097	240.777740	0.243517	-14.294335	410.964264	0.190300
5.150000	10.770472	240.736176	0.243426	-14.488097	411.013519	0.190202
5.160000	10.654032	241.159821	0.243565	-14.403596	411.135895	0.190666
5.170000	10.625957	241.145782	0.243651	-14.121024	410.863342	0.191095
5.180000	10.908543	240.923141	0.243679	-13.948790	410.168396	0.191503
5.190000	10.694072	241.514282	0.243821	-13.876667	410.731415	0.192047
5.200000	10.845490	240.916000	0.243814	-13.658146	410.278381	0.192414
5.210000	10.694532	241.051117	0.243863	-13.556958	410.646088	0.193126
5.220000	10.911764	240.750565	0.244203	-12.987510	410.707367	0.193893
5.230000	10.978959	240.944138	0.244495	-12.957369	411.370514	0.195026
5.240000	11.145104	240.463669	0.244681	-12.330330	411.847046	0.196224
5.250000	11.283636	239.674011	0.245030	-11.256022	411.707611	0.197289
5.260000	11.181003	239.721573	0.245290	-11.311998	412.585358	0.198081
5.270000	11.452083	239.095093	0.245437	-11.117697	412.497040	0.198486
5.280000	11.469111	239.204681	0.245564	-11.163985	413.141266	0.198980
5.290000	11.478777	239.108521	0.245481	-11.088633	413.093689	0.199144
5.300000	11.337944	239.594803	0.245541	-11.379815	413.394653	0.199337
5.310000	11.309870	239.546433	0.245580	-11.470237	412.971497	0.199346
5.320000	11.546432	239.573624	0.245554	-11.359900	412.091034	0.199370
5.330000	11.183764	240.135300	0.245660	-11.651621	412.040894	0.199372
5.340000	11.350370	239.972092	0.245616	-11.560660	410.742432	0.199281
5.350000	11.314472	240.637085	0.245647	-11.782950	410.126404	0.199192
5.360000	11.403297	240.911270	0.245433	-11.488537	409.111359	0.199103
5.370000	11.320915	242.152481	0.245459	-11.427718	408.854218	0.199133
5.380000	11.319075	242.636215	0.245245	-11.437406	408.451111	0.198870
5.390000	11.221504	242.958481	0.245031	-11.306078	407.669281	0.198465
5.400000	11.088956	244.189178	0.245047	-11.681762	407.074707	0.197708
5.410000	11.189748	244.538437	0.244730	-12.155944	405.579559	0.196510
5.420000	10.990925	245.443298	0.244722	-12.697942	405.234863	0.195198
5.430000	11.232550	245.890045	0.244565	-12.953602	403.409760	0.193690
5.440000	10.985402	246.922546	0.244559	-13.835224	402.508392	0.192239
5.450000	10.972976	247.219147	0.244341	-14.274420	401.515930	0.190769
5.460000	11.072387	247.926056	0.244262	-14.412746	400.837463	0.189635
5.470000	10.851473	249.260345	0.244159	-14.857862	400.954224	0.188703
5.480000	10.914986	249.963150	0.243941	-14.779280	399.952728	0.187829
5.490000	10.919588	251.212982	0.243872	-14.919220	399.991730	0.187165
5.500000	10.889213	251.752731	0.243641	-15.013950	399.349426	0.186493
5.510000	10.692691	253.110336	0.243570	-15.298135	400.009888	0.186241
5.520000	10.809591	253.468185	0.243717	-14.998340	400.300385	0.186269
5.530000	10.964231	253.252441	0.243842	-14.792737	400.551453	0.186457
5.540000	10.843189	253.575592	0.244072	-14.899306	401.902893	0.186842
5.550000	11.445179	253.089340	0.244397	-14.769592	401.802399	0.187125
5.560000	11.519278	252.983307	0.244710	-14.888003	402.708954	0.187458
5.570000	11.622371	252.329834	0.244793	-14.698007	402.356873	0.187695
5.580000	11.537687	252.465164	0.245130	-14.905764	402.653625	0.188098
5.590000	11.620069	251.781311	0.245284	-14.771745	402.422058	0.188607
5.600000	11.625132	251.038025	0.245378	-14.554839	402.071716	0.189559
5.610000	11.619149	250.874817	0.245653	-14.170542	402.645355	0.190955
5.620000	11.707974	249.712723	0.245852	-13.479991	402.047485	0.192329
5.630000	11.629734	249.212097	0.245966	-13.131756	402.214417	0.193759
5.640000	11.738811	248.170227	0.246136	-12.309878	401.896545	0.195022
5.650000	11.538147	248.100601	0.246284	-11.836235	402.491333	0.196137
5.660000	11.444259	247.391373	0.246239	-11.698447	402.458984	0.196777
5.670000	11.527102	246.813950	0.246284	-11.719438	402.676056	0.197249
5.680000	11.329659	246.849014	0.246418	-11.937423	403.838959	0.197639
5.690000	11.411582	245.996750	0.246443	-11.925581	403.973755	0.197810
5.700000	11.389490	245.648880	0.246663	-12.045607	404.734619	0.198068
5.710000	11.638019	244.839798	0.246696	-11.919660	404.225342	0.197934
5.720000	11.401457	244.770157	0.246857	-12.525709	403.920197	0.197484
5.730000	11.539989	244.148148	0.247014	-12.956832	403.319183	0.196807
5.740000	11.505010	243.821503	0.246859	-13.087084	403.189331	0.196106
5.750000	11.249118	244.097824	0.246711	-13.509056	403.937317	0.195744
5.760000	11.153849	244.046555	0.246472	-13.417018	403.705597	0.195483
5.770000	10.922810	244.636124	0.246331	-13.529509	404.258698	0.195408
5.780000	10.974357	244.594559	0.246112	-13.401410	404.275269	0.195293
5.790000	10.694532	245.647278	0.246061	-13.677522	405.373474	0.195435
5.800000	10.722607	245.887955	0.245900	-13.580102	405.569702	0.195570
5.810000	10.737334	246.168503	0.245784	-13.426169	405.671570	0.195722
5.820000	10.648048	246.832077	0.245950	-13.446622	406.118439	0.196030
5.830000	10.936157	246.665161	0.246095	-13.331440	405.987396	0.196061
5.840000	10.800386	246.977188	0.246141	-13.675370	406.105469	0.196191
5.850000	11.011175	246.792801	0.246288	-13.525742	405.897369	0.196339
5.860000	10.835825	247.413116	0.246464	-13.660837	406.418213	0.196877
5.870000	10.923731	246.939041	0.246598	-13.371807	405.852661	0.197184
5.880000	11.117030	246.569000	0.246857	-13.093004	405.337708	0.197497
5.890000	11.013017	246.588791	0.247056	-13.157054	405.135010	0.197672
5.900000	11.123014	245.897522	0.247081	-13.089774	404.591919	0.197635
5.910000	11.063643	245.892410	0.247304	-13.273849	405.195923	0.197529
5.920000	11.175941	245.222443	0.247295	-13.123145	405.181458	0.197394
5.930000	10.862059	245.390869	0.247386	-13.595712	406.424347	0.197317
5.940000	10.945361	244.924683	0.247415	-13.448236	406.743774	0.197378
5.950000	10.898877	244.464737	0.247396	-13.361042	407.200684	0.197586
5.960000	10.760346	244.369568	0.247504	-13.481068	408.024475	0.197818
5.970000	10.753902	243.558060	0.247526	-13.176430	407.888458	0.198142
5.980000	10.752522	243.495255	0.247728	-13.436934	408.130219	0.198367
5.990000	10.829842	242.545685	0.247739	-13.229176	407.648682	0.198502
6.000000	10.665537	242.737946	0.247880	-13.687748	408.590485	0.198952
6.010000	10.736414	242.121017	0.247948	-13.674293	408.817383	0.199638
6.020000	10.646207	241.792419	0.247924	-13.363196	408.986725	0.200593
6.030000	10.575331	241.628998	0.248014	-13.101077	409.832581	0.201800
6.040000	10.656793	241.009308	0.248066	-12.459506	410.093597	0.202930
6.050000	10.379270	240.927597	0.248086	-12.231296	410.919830	0.204076
6.060000	10.662776	240.158768	0.248083	-11.647853	411.156281	0.205051
6.070000	10.437720	240.451172	0.248390	-11.587034	412.380066	0.206196
6.080000	10.598803	239.714310	0.248424	-11.196817	412.595306	0.207061
6.090000	10.685328	239.285965	0.248658	-11.052032	413.194000	0.207970
6.100000	10.679344	238.855774	0.248966	-11.034271	414.174011	0.208769
6.110000	10.699594	238.065491	0.249060	-10.645668	414.366455	0.209553
6.120000	10.634241	237.784760	0.249332	-10.688727	415.069031	0.210257
6.130000	10.876786	236.698334	0.249507	-10.294204	414.738037	0.210704
6.140000	10.467175	236.724304	0.249759	-10.647822	416.000458	0.211181
6.150000	10.632860	236.114151	0.249829	-10.379782	416.148895	0.211672
6.160000	10.597423	235.630920	0.249870	-10.072452	416.547852	0.212343
6.170000	10.474539	235.435959	0.249922	-10.077297	416.758545	0.212977
6.180000	10.594661	234.751282	0.250060	-9.767276	416.732697	0.213565
6.190000	10.455669	234.555817	0.250290	-9.852316	417.805420	0.214321
6.200000	10.631479	233.573914	0.250164	-9.536913	417.852753	0.215136
6.210000	10.391696	233.572449	0.250408	-9.335076	418.995087	0.216110
6.220000	10.624577	232.816620	0.250489	-8.770472	418.806061	0.216819
6.230000	10.499392	232.167587	0.250551	-8.599853	419.140259	0.217437
6.240000	10.445544	232.015167	0.250592	-8.444843	419.796661	0.217937
6.250000	10.565666	231.637939	0.250578	-8.060545	419.889496	0.218292
6.260000	10.255926	231.700470	0.250502	-8.202639	420.299377	0.218405
6.270000	10.434498	231.171982	0.250269	-8.120827	419.532410	0.218389
6.280000	10.234756	231.897568	0.250364	-8.490054	420.152924	0.218300
6.290000	10.301029	231.723892	0.250107	-8.309208	419.439575	0.217965
6.300000	10.282160	231.781097	0.250067	-8.572941	419.271393	0.217523
6.310000	10.229692	232.112961	0.249906	-8.797922	419.326416	0.217045
6.320000	10.156515	232.092896	0.249673	-8.909336	419.067535	0.216480
6.330000	9.994512	232.482208	0.249589	-9.218280	419.376038	0.216139
6.340000	10.146850	232.202789	0.249396	-8.955623	419.021576	0.215777
6.350000	9.721130	232.789078	0.249335	-9.305473	420.066711	0.215476
6.360000	9.995432	232.417526	0.249092	-9.272103	419.891235	0.215176
6.370000	9.912128	232.611893	0.249054	-9.335076	420.039520	0.214836
6.380000	9.867025	232.832016	0.248863	-9.555751	420.382996	0.214450
6.390000	9.924555	232.957474	0.248734	-9.662320	420.337555	0.214144
6.400000	9.853218	233.358902	0.248514	-9.834016	420.625366	0.213934
6.410000	9.925476	233.296707	0.248175	-9.741440	419.939392	0.213652
6.420000	9.577996	234.417847	0.248082	-9.976648	420.503876	0.213758
6.430000	9.736778	234.245071	0.247812	-9.604730	419.652802	0.213774
6.440000	9.543939	234.453827	0.247696	-9.676315	419.314362	0.213783
6.450000	9.558207	234.729187	0.247548	-9.720449	419.009888	0.213801
6.460000	9.657618	234.693298	0.247530	-9.381902	418.240814	0.213902
6.470000	9.467079	234.686340	0.247458	-9.373829	417.854950	0.213742
6.480000	9.835269	234.416840	0.247468	-9.201595	416.500031	0.213442
6.490000	9.709624	235.332703	0.247636	-9.488472	416.918915	0.213057
6.500000	9.827445	235.214645	0.247377	-9.418502	416.258698	0.212415
6.510000	9.640589	235.700516	0.247262	-9.509462	416.638367	0.211791
6.520000	9.733096	236.395828	0.247066	-9.621415	416.954895	0.211210
6.530000	9.689835	236.968536	0.246828	-9.503542	416.798401	0.210650
6.540000	9.699499	237.646957	0.246805	-9.661244	416.898834	0.210071
6.550000	10.060326	237.681656	0.246664	-9.320006	416.195984	0.209491
6.560000	9.643351	238.860703	0.246451	-9.803875	416.781067	0.208804
6.570000	9.811797	239.062286	0.246194	-9.660705	415.739197	0.208109
6.580000	9.864264	239.688614	0.246141	-9.787190	415.114349	0.207380
6.590000	9.781881	240.371872	0.245892	-10.023473	414.264526	0.206593
6.600000	9.891418	240.971451	0.245714	-10.105823	413.276642	0.205746
6.610000	9.880833	241.778152	0.245583	-10.343182	412.793091	0.204799
6.620000	9.947107	242.015793	0.245127	-10.573007	410.834076	0.203690
6.630000	9.656237	243.295700	0.244955	-11.146761	410.332642	0.202513
6.640000	9.886355	243.796371	0.244647	-11.198432	408.417023	0.200995
6.650000	9.751966	244.489441	0.244330	-11.958951	407.151184	0.199277
6.660000	9.669584	245.394348	0.243961	-12.704939	405.869476	0.197475
6.670000	9.677408	246.514740	0.243744	-13.313678	404.720184	0.195561
6.680000	9.512643	247.704102	0.243331	-13.942870	403.942993	0.193630
6.690000	9.620799	248.511505	0.242839	-14.306715	402.413391	0.191545
6.700000	9.334531	250.483322	0.242591	-15.298673	402.501648	0.189720
6.710000	9.367208	250.963913	0.242205	-15.886959	402.254089	0.187915
6.720000	9.095208	251.970169	0.241916	-16.181372	402.977295	0.186717
6.730000	9.116379	252.501801	0.241762	-16.420346	403.825104	0.186425
6.740000	9.115458	252.819107	0.241731	-16.220663	404.665344	0.186814
6.750000	9.268257	252.982758	0.241899	-15.775008	404.635284	0.187391
6.760000	9.779580	252.331650	0.242177	-15.291138	403.874023	0.188032
6.770000	9.654857	252.504196	0.242516	-15.517733	404.581024	0.188433
6.780000	10.013381	251.905060	0.242633	-15.282527	403.601501	0.188577
6.790000	10.023506	251.872925	0.242871	-15.460142	403.367645	0.188566
6.800000	10.071371	251.577698	0.242906	-15.560792	403.046936	0.188474
6.810000	10.034092	251.634186	0.242937	-15.654983	402.699829	0.188321
6.820000	9.990369	251.884933	0.243039	-15.847130	402.353729	0.188326
6.830000	10.174924	251.544418	0.242945	-15.673820	401.377655	0.188101
6.840000	9.769916	252.245926	0.242924	-16.024209	401.592590	0.188163
6.850000	10.035012	251.838806	0.242958	-15.792769	400.884644	0.188077
6.860000	9.909827	252.124817	0.243104	-15.857357	401.084137	0.187991
6.870000	10.027188	251.916397	0.243123	-15.655520	400.950684	0.188024
6.880000	10.033172	251.935318	0.243283	-15.523116	401.221375	0.187955
6.890000	10.124298	252.038910	0.243348	-15.647447	400.812256	0.187706
6.900000	10.199317	251.638077	0.243454	-15.774470	400.043915	0.187209
6.910000	9.992210	252.138367	0.243746	-16.336382	400.447235	0.186861
6.920000	10.170782	251.660110	0.243864	-16.314315	399.394928	0.186200
6.930000	10.239818	251.756271	0.244155	-16.816484	399.072083	0.185502
6.940000	10.376509	251.537613	0.244484	-16.920901	398.064514	0.184935
6.950000	10.576251	251.653168	0.244745	-17.199704	398.028931	0.184501
6.960000	10.533449	251.918030	0.244969	-17.030700	397.846313	0.184289
6.970000	10.881389	252.079346	0.245097	-16.457484	397.310150	0.184108
6.980000	10.678885	253.311768	0.245294	-16.745437	398.074524	0.184134
6.990000	10.925111	253.568085	0.245388	-16.238424	398.014771	0.184332
7.000000	10.936617	254.690781	0.245484	-16.141543	398.617737	0.185032
7.010000	11.022681	255.313370	0.245612	-15.545721	398.425903	0.185844
7.020000	11.030505	256.057434	0.245698	-15.019331	397.997833	0.186670
7.030000	11.188367	256.660004	0.245807	-14.732993	397.515320	0.187443
7.040000	11.323677	256.808319	0.245898	-14.231362	396.649750	0.188021
7.050000	11.154770	258.072449	0.246040	-14.574215	396.773895	0.188684
7.060000	11.240834	258.273224	0.246022	-14.551071	395.782318	0.189393
7.070000	11.168117	258.911682	0.246134	-14.818033	395.653625	0.190677
7.080000	11.147866	258.965210	0.246193	-14.434813	395.000397	0.192396
7.090000	11.261085	259.401703	0.246535	-13.797009	394.167603	0.194456
7.100000	11.378445	259.119659	0.246735	-13.100000	393.110840	0.196375
7.110000	11.609024	258.359772	0.247011	-12.312569	391.877441	0.198021
7.120000	11.465429	258.479736	0.247360	-12.240446	392.010223	0.199778
7.130000	11.591074	257.967438	0.247399	-11.508453	391.407684	0.201136
7.140000	11.473714	258.181763	0.247510	-11.536979	391.750977	0.202760
7.150000	11.448861	258.094757	0.247578	-11.102626	392.110748	0.204544
7.160000	11.360956	258.397858	0.247620	-10.321115	392.896851	0.206186
7.170000	11.245437	258.521606	0.247537	-9.940047	393.287689	0.207644
7.180000	11.363257	258.365967	0.247534	-9.504619	393.329376	0.208822
7.190000	10.967914	259.172668	0.247513	-9.519152	394.123199	0.209847
7.200000	11.043392	258.773804	0.247425	-9.205362	393.804626	0.210462
7.210000	10.825700	258.974030	0.247513	-9.482551	394.187866	0.211130
7.220000	10.961010	258.611206	0.247566	-9.414196	394.327362	0.211683
7.230000	10.845030	258.822662	0.247560	-9.504619	394.503754	0.212107
7.240000	10.881848	258.750702	0.247580	-9.795802	393.606079	0.212107
7.250000	11.076529	258.434753	0.247502	-9.979876	391.564880	0.211512
7.260000	10.546336	259.093964	0.247326	-10.884643	391.162903	0.210813
7.270000	10.748380	258.653900	0.247264	-11.024583	390.182678	0.210060
7.280000	10.483283	258.903992	0.247102	-11.464856	390.473236	0.209382
7.290000	10.307013	258.685028	0.246873	-11.653236	390.614685	0.208756
7.300000	10.140867	259.101410	0.246780	-11.833005	391.827271	0.208382
7.310000	9.962755	258.965515	0.246577	-11.928810	392.860168	0.207991
7.320000	10.017063	258.508453	0.246399	-11.839464	393.236053	0.207752
7.330000	9.721591	258.677429	0.246579	-12.242599	395.140442	0.207799
7.340000	9.860582	257.549011	0.246655	-12.038609	395.580017	0.207979
7.350000	9.731716	256.850372	0.246789	-12.427751	397.397705	0.208687
7.360000	9.991750	255.451279	0.247161	-12.013851	398.359039	0.209824
7.370000	9.993591	254.620544	0.247489	-11.648930	399.722321	0.211116
7.380000	10.149611	253.263031	0.247709	-11.235031	400.480865	0.212314
7.390000	10.378810	251.906616	0.247929	-10.521337	401.036072	0.213440
7.400000	10.235676	251.253494	0.248294	-10.429837	402.972778	0.214424
7.410000	10.364542	249.762573	0.248373	-10.044464	403.583344	0.215187
7.420000	10.210823	249.316055	0.248534	-9.941662	404.642578	0.216089
7.430000	10.405964	248.355835	0.248710	-9.626798	404.847351	0.216749
7.440000	10.143628	247.841293	0.248879	-9.665012	405.638397	0.217458
7.450000	10.206680	247.116989	0.248999	-9.376520	405.916901	0.218021
7.460000	10.319439	245.927307	0.249110	-9.126243	406.019958	0.218483
7.470000	10.041455	245.673630	0.249339	-9.348532	407.226257	0.218972
7.480000	10.314376	244.551971	0.249546	-8.881347	407.394348	0.219434
7.490000	10.213124	244.335892	0.249679	-8.832907	408.474945	0.219981
7.500000	10.442322	243.572479	0.249724	-8.387790	408.574036	0.220460
7.510000	10.443703	243.357559	0.249918	-8.289294	409.119568	0.220893
7.520000	10.517801	242.632401	0.250036	-7.991114	409.238220	0.221200
7.530000	10.678424	241.751266	0.250010	-7.828030	409.019592	0.221436
7.540000	10.231073	241.947144	0.250159	-7.826415	409.710083	0.221743
7.550000	10.502153	241.444916	0.250051	-7.504015	409.066895	0.221820
7.560000	10.131662	241.515091	0.249875	-7.611661	409.326874	0.221815
7.570000	10.323121	241.194153	0.249794	-7.371072	408.839355	0.221613
7.580000	10.241199	241.081924	0.249893	-7.734916	409.625671	0.221247
7.590000	10.147310	240.744904	0.249754	-8.000802	409.746643	0.220536
7.600000	10.312075	240.508652	0.249572	-8.414702	410.032410	0.219921
7.610000	10.010159	240.927734	0.249568	-8.839904	411.185272	0.219343
7.620000	10.110951	240.359817	0.249376	-8.761860	411.135437	0.218719
7.630000	10.007858	240.709961	0.249303	-8.971232	411.711761	0.218208
7.640000	10.149151	240.321945	0.249065	-8.962620	411.295197	0.217432
7.650000	9.842173	240.662277	0.248790	-9.583200	411.507812	0.216476
7.660000	9.908447	240.547821	0.248736	-9.979339	410.789612	0.215260
7.670000	9.971499	240.405579	0.248392	-10.339953	409.437714	0.213659
7.680000	9.612514	241.299423	0.248088	-11.466470	408.578308	0.211887
7.690000	9.607912	241.287674	0.247779	-11.988015	408.235779	0.210073
7.700000	9.484108	242.283997	0.247550	-12.522479	408.975739	0.208587
7.710000	9.549462	242.755875	0.247081	-12.545623	408.713348	0.207086
7.720000	9.407248	244.159790	0.246930	-12.814200	408.999359	0.205822
7.730000	9.421056	244.845703	0.246697	-12.869099	408.361877	0.204416
7.740000	9.412771	245.723434	0.246232	-13.087084	407.507202	0.202780
7.750000	9.271018	247.109589	0.246057	-13.745878	407.193512	0.201029
7.760000	9.411851	247.929459	0.245727	-14.091422	405.631531	0.199125
7.770000	9.283444	249.212234	0.245505	-14.990267	404.357666	0.197254
7.780000	9.358924	250.132889	0.245182	-15.194795	402.745422	0.195696
7.790000	9.147215	251.841049	0.245003	-15.228165	402.416107	0.194631
7.800000	9.170226	252.522369	0.244831	-14.796504	401.065186	0.193657
7.810000	9.339133	253.396530	0.244750	-14.584980	399.828705	0.192763
7.820000	9.224074	254.448471	0.244801	-14.972506	399.980988	0.192045
7.830000	9.371810	254.799408	0.244667	-15.060237	399.724792	0.191580
7.840000	9.259973	255.483719	0.244715	-15.432155	400.289154	0.191849
7.850000	9.554065	255.015411	0.244934	-15.199100	399.949097	0.192455
7.860000	9.563729	254.748199	0.245220	-15.281988	400.902191	0.193480
7.870000	9.861963	253.519363	0.245613	-14.967123	400.798859	0.194819
7.880000	10.190573	252.273041	0.245976	-14.165698	400.506439	0.196230
7.890000	9.935141	251.726181	0.246122	-13.975164	400.770538	0.197618
7.900000	10.190573	250.758194	0.246307	-13.448774	400.469116	0.198633
7.910000	10.040075	250.496368	0.246471	-13.175892	401.184540	0.199817
7.920000	10.125218	249.803833	0.246280	-12.626896	400.716553	0.200642
7.930000	9.951710	250.067932	0.246380	-12.639275	401.497253	0.201482
7.940000	9.965977	249.436249	0.246281	-12.320104	401.485718	0.202179
7.950000	9.933760	248.863602	0.246238	-12.194697	401.567993	0.202632
7.960000	9.637367	248.803452	0.246277	-12.221070	402.407898	0.203223
7.970000	9.846775	248.084946	0.246269	-12.009006	402.388031	0.203627
7.980000	9.573854	247.992615	0.246334	-12.092433	403.056610	0.203806
7.990000	9.722971	247.132919	0.246227	-11.974022	402.793274	0.203887
8.000000	9.450972	247.234848	0.246224	-12.302343	404.229767	0.204139
8.010000	9.507120	246.865784	0.246143	-12.269510	404.604065	0.204180
8.020000	9.515405	246.335327	0.246117	-12.284581	405.084167	0.204486
8.030000	9.427959	246.158020	0.246279	-12.358856	406.266937	0.205033
8.040000	9.528291	245.271072	0.246361	-12.240446	406.540985	0.205522
8.050000	9.418755	244.866180	0.246481	-12.351860	407.374329	0.206078
8.060000	9.736319	243.681961	0.246589	-12.189314	407.023773	0.206636
8.070000	9.464318	243.736847	0.246577	-12.318489	407.581940	0.207240
8.080000	9.559587	242.962021	0.246596	-12.159173	407.300079	0.207827
8.090000	9.611134	242.761185	0.246529	-11.815244	407.321075	0.208593
8.100000	9.288507	242.982040	0.246388	-11.661310	407.735931	0.209325
8.110000	9.355242	242.683258	0.246330	-11.311998	407.456512	0.209866
8.120000	9.220392	242.886688	0.246318	-11.276475	407.987427	0.210381
8.130000	9.352020	242.491318	0.246274	-11.070870	407.528534	0.210495
8.140000	8.975546	243.000168	0.246254	-11.437943	408.344574	0.210910
8.150000	9.219011	242.696594	0.246300	-11.224805	408.087158	0.211273
8.160000	9.213949	242.714676	0.246214	-11.147838	407.904846	0.211587
8.170000	9.131566	243.055420	0.246261	-11.260866	408.125702	0.212111
8.180000	9.323485	242.698471	0.246382	-10.908325	407.998322	0.212586
8.190000	9.266416	243.082565	0.246454	-10.820055	408.236786	0.213118
8.200000	9.519086	242.403076	0.246559	-10.368480	407.504242	0.213371
8.210000	9.345577	242.693207	0.246840	-10.714562	408.154724	0.213711
8.220000	9.500677	242.178406	0.246826	-10.490119	407.939423	0.213757
8.230000	9.582599	242.258347	0.246740	-10.377091	408.130951	0.213890
8.240000	9.513103	243.013229	0.246786	-10.319500	408.895477	0.214040
8.250000	9.566951	243.330017	0.246516	-10.014862	408.563416	0.213999
8.260000	9.374111	243.817276	0.246542	-10.369018	408.743744	0.213762
8.270000	9.661300	243.424728	0.246555	-10.234460	408.035583	0.213373
8.280000	9.475364	244.122223	0.246532	-10.613374	408.630798	0.212915
8.290000	9.591804	243.925064	0.246506	-10.639209	407.904449	0.212464
8.300000	9.485489	244.084412	0.246352	-10.744164	407.636078	0.212115
8.310000	9.394822	244.480270	0.246330	-10.815211	407.768768	0.211882
8.320000	9.418755	244.472076	0.246187	-10.659662	407.204071	0.211735
8.330000	9.449591	244.919891	0.246332	-10.677424	407.431000	0.211621
8.340000	9.697659	244.267639	0.246248	-10.450828	406.724182	0.211217
8.350000	9.365828	244.854568	0.246386	-11.000900	407.717316	0.210844
8.360000	9.585820	244.359253	0.246330	-11.011127	407.615662	0.210408
8.370000	9.600548	244.134842	0.246322	-11.056877	407.417236	0.209856
8.380000	9.591804	244.281174	0.246328	-11.450323	407.458588	0.209491
8.390000	9.654396	244.182281	0.246387	-11.414800	407.017883	0.209081
8.400000	9.732176	244.478607	0.246281	-11.539669	406.695923	0.208659
8.410000	9.797530	244.152069	0.246243	-11.471314	405.371613	0.207926
8.420000	9.506200	244.890076	0.246299	-12.036995	405.529846	0.207354
8.430000	9.751046	244.783798	0.246018	-12.006316	404.615448	0.206584
8.440000	9.540257	245.010117	0.245892	-12.243137	403.992187	0.205652
8.450000	9.450972	245.562271	0.245825	-12.754995	403.708099	0.204783
8.460000	9.485950	245.810028	0.245623	-13.150594	403.308929	0.203732
8.470000	9.323946	246.279465	0.245684	-13.455233	403.880096	0.202914
8.480000	9.570633	246.176819	0.245672	-13.351354	403.398499	0.201986
8.490000	9.369509	246.948486	0.245681	-14.055899	404.356262	0.201134
8.500000	9.618958	246.715118	0.245746	-14.018760	404.119995	0.200186
8.510000	9.764853	246.737900	0.245918	-14.217367	404.336090	0.199205
8.520000	9.815019	246.827194	0.246043	-14.845482	404.684753	0.198078
8.530000	9.930999	246.750290	0.246140	-15.179186	404.735870	0.196961
8.540000	9.838031	246.838242	0.246287	-15.911180	405.167450	0.196001
8.550000	9.838031	246.023087	0.246439	-16.158228	404.701874	0.195198
8.560000	9.861503	246.613052	0.246727	-16.748129	405.774323	0.194894
8.570000	10.240738	245.830399	0.246948	-16.469325	405.478912	0.194745
8.580000	10.265591	245.571228	0.247210	-16.353068	405.362732	0.194792
8.590000	10.352116	245.565796	0.247465	-16.231966	405.353729	0.194932
8.600000	10.540813	245.343567	0.247681	-15.727643	404.912323	0.195087
8.610000	10.359480	245.521103	0.247812	-15.796536	405.107605	0.195216
8.620000	10.601104	244.836365	0.247836	-15.543030	404.455017	0.195223
8.630000	10.291365	245.580902	0.248012	-15.721723	405.369934	0.195643
8.640000	10.415168	245.193253	0.248071	-15.478442	404.993835	0.195960
8.650000	10.393997	245.164459	0.248185	-15.290600	405.086853	0.196487
8.660000	10.307472	245.135574	0.248437	-15.048934	405.338837	0.197103
8.670000	10.419311	244.861801	0.248473	-14.976811	405.290405	0.197691
8.680000	10.328644	244.784348	0.248780	-15.020946	405.995636	0.198524
8.690000	10.641145	243.852264	0.249002	-14.498862	406.242676	0.199754
8.700000	10.456590	243.890442	0.249521	-14.323938	408.048218	0.201583
8.710000	10.713862	242.493225	0.249820	-13.372884	408.231110	0.203522
8.720000	10.990465	241.873291	0.250270	-12.519788	408.868439	0.205350
8.730000	10.965152	240.978668	0.250613	-12.296422	409.560242	0.207062
8.740000	11.112428	240.060226	0.250841	-11.788333	409.687592	0.208418
8.750000	11.095860	239.848206	0.251231	-11.608564	409.920258	0.209733
8.760000	11.227487	238.818375	0.251322	-11.215655	409.048218	0.210774
8.770000	10.997828	239.177368	0.251486	-11.430408	409.354645	0.211765
8.780000	11.165355	238.652496	0.251532	-10.926625	408.552490	0.212546
8.790000	11.060881	238.916931	0.251453	-10.930930	408.392792	0.213416
8.800000	10.885991	238.932007	0.251521	-10.822746	408.437500	0.214299
8.810000	10.942140	239.217636	0.251362	-10.307121	407.884796	0.215139
8.820000	10.676583	239.488449	0.251416	-10.248454	407.751556	0.215740
8.830000	10.927873	239.246628	0.251191	-9.998177	406.577240	0.216122
8.840000	10.501232	240.580353	0.251080	-10.327574	407.002899	0.216533
8.850000	10.573030	240.711212	0.250854	-10.057921	406.305206	0.216670
8.860000	10.336007	241.431213	0.250566	-10.237690	405.864105	0.216683
8.870000	10.191493	242.297165	0.250417	-10.387318	405.683716	0.216763
8.880000	10.271114	242.982407	0.250193	-10.504114	405.475220	0.216791
8.890000	9.932839	243.859879	0.249977	-10.697339	405.456512	0.216809
8.900000	10.208061	244.083664	0.249844	-10.627907	405.017975	0.216973
8.910000	9.967358	245.408432	0.249910	-11.011665	406.017700	0.217473
8.920000	10.192874	245.624405	0.249683	-10.558475	405.335693	0.217886
8.930000	10.120156	246.220749	0.249803	-10.891101	405.180634	0.218617
8.940000	10.370985	246.750076	0.249660	-10.652665	404.695282	0.219329
8.950000	9.701800	246.931320	0.249540	-10.682806	404.088257	0.220266
8.960000	10.129361	247.521515	0.249579	-10.304430	403.521912	0.220982
8.970000	10.323121	247.581100	0.249474	-10.035315	401.790527	0.221649
8.980000	9.621719	248.218918	0.249493	-10.043926	401.288666	0.222285
8.990000	10.114173	248.249222	0.249445	-9.698921	399.964996	0.222779
9.000000	9.851377	248.600937	0.249390	-9.806028	398.805664	0.223014
9.010000	9.817780	248.974716	0.249279	-10.022397	398.257568	0.223409
9.020000	9.690294	249.313965	0.249243	-9.470173	397.927063	0.224010
9.030000	9.598248	249.813263	0.249283	-9.739825	398.414825	0.224554
9.040000	9.932839	249.508713	0.249249	-9.130548	397.486114	0.224899
9.050000	9.763932	250.304749	0.249429	-8.980920	398.644531	0.225360
9.060000	9.920874	250.109085	0.249373	-8.773702	398.853271	0.225323
9.070000	9.898782	250.167709	0.249488	-8.980920	399.531860	0.225143
9.080000	9.931458	250.507156	0.249404	-9.083184	399.979248	0.225124
9.090000	9.966437	250.743057	0.249582	-8.915794	400.477753	0.225105
9.100000	9.713767	251.105988	0.249655	-8.691352	401.280701	0.225238
9.110000	10.342451	250.848434	0.249736	-8.385637	400.769165	0.225274
9.120000	10.108190	251.344894	0.250024	-8.593394	401.714264	0.225249
9.130000	10.312075	250.736694	0.250024	-8.502433	401.075348	0.224851
9.140000	10.244420	250.516724	0.250279	-8.492207	400.964722	0.224490
9.150000	10.479602	250.559250	0.250352	-8.796845	400.408142	0.223869
9.160000	10.422993	250.189728	0.250302	-9.038511	400.087524	0.223080
9.170000	10.246721	250.505783	0.250356	-9.083184	400.246002	0.222392
9.180000	10.268813	249.949097	0.250199	-9.072420	399.422272	0.221655
9.190000	9.986227	250.211700	0.250269	-9.606345	400.476990	0.220922
9.200000	10.219567	249.427490	0.250316	-9.307626	400.093170	0.220198
9.210000	10.082417	249.245758	0.250282	-9.293094	400.268860	0.219644
9.220000	10.190112	248.927017	0.250288	-9.516460	400.480774	0.218817
9.230000	10.168481	248.626312	0.250339	-9.578357	401.196503	0.218073
9.240000	10.011080	248.830841	0.250162	-9.803337	401.790466	0.217466
9.250000	10.121997	248.434952	0.249939	-9.708071	401.723022	0.216760
9.260000	9.755188	248.962173	0.250110	-10.133811	403.134125	0.216199
9.270000	9.933760	248.230606	0.249971	-10.090752	403.162811	0.215347
9.280000	9.895100	248.174774	0.249986	-10.405079	404.009674	0.214500
9.290000	9.882214	248.297455	0.249911	-10.703797	404.326080	0.213719
9.300000	9.994051	248.431000	0.249926	-10.789375	404.691315	0.212984
9.310000	9.887736	248.836655	0.249767	-11.122002	404.987213	0.212519
9.320000	10.129361	248.414658	0.249848	-10.748471	404.643616	0.212184
9.330000	10.018904	249.118134	0.249956	-10.933622	405.213165	0.211926
9.340000	10.227852	248.331345	0.249757	-10.825976	404.564667	0.211545
9.350000	10.071371	248.563843	0.249804	-10.835126	404.362213	0.211337
9.360000	10.322660	248.699234	0.249602	-10.691418	403.391724	0.210907
9.370000	9.994512	248.819260	0.249553	-10.930392	402.355286	0.210246
9.380000	9.826985	249.264679	0.249179	-11.257637	401.776947	0.209713
9.390000	9.947567	249.123611	0.249096	-11.140840	400.644348	0.209052
9.400000	9.557286	249.862900	0.249007	-11.681224	400.951691	0.208477
9.410000	9.693516	249.460739	0.248831	-11.462703	400.194183	0.208005
9.420000	9.770376	249.922317	0.248782	-11.391656	400.369812	0.207527
9.430000	9.849076	249.849548	0.248702	-11.387351	400.717102	0.206894
9.440000	9.745523	250.050858	0.248681	-11.592416	400.903717	0.206267
9.450000	9.697659	250.318573	0.248540	-11.821164	401.036560	0.205514
9.460000	9.936982	250.121094	0.248365	-11.935808	400.452698	0.204481
9.470000	9.619418	250.903595	0.248419	-12.516559	401.148865	0.203618
9.480000	9.732636	250.555176	0.248327	-12.506871	400.671082	0.202747
9.490000	9.637828	250.577133	0.248238	-12.730236	400.981262	0.201881
9.500000	9.726653	250.430679	0.248144	-12.935302	400.923370	0.201060
9.510000	9.621259	250.592697	0.248167	-13.124759	400.931458	0.200339
9.520000	9.661759	250.827560	0.248092	-13.244785	400.603485	0.199584
9.530000	9.794768	250.518768	0.248088	-13.121530	399.702301	0.198723
9.540000	9.601008	251.488861	0.248185	-13.663528	400.067993	0.197908
9.550000	9.816400	251.312119	0.247946	-13.802392	399.418335	0.196845
9.560000	9.668203	252.020325	0.247855	-14.239973	399.522430	0.195806
9.570000	9.770836	252.531143	0.247717	-14.531695	399.427155	0.194792
9.580000	9.543479	253.053131	0.247564	-15.000493	399.968475	0.193873
9.590000	9.438085	253.665619	0.247521	-15.350882	400.463593	0.193176
9.600000	9.723432	253.526093	0.247595	-15.293291	400.381256	0.192677
9.610000	9.561889	254.176697	0.247732	-15.765857	401.423218	0.192457
9.620000	9.891418	253.574188	0.247824	-15.505892	401.290985	0.192321
9.630000	9.912589	253.460922	0.248087	-15.540877	401.554749	0.192374
9.640000	10.117394	253.299133	0.248271	-15.619997	401.322113	0.192370
9.650000	10.141788	252.991089	0.248368	-15.693735	401.232330	0.192444
9.660000	10.084258	252.740616	0.248555	-15.784696	401.078705	0.192627
9.670000	10.289523	252.177155	0.248615	-15.710958	400.048309	0.192868
9.680000	10.180448	252.637253	0.248811	-15.832598	399.859192	0.193362
9.690000	10.312535	252.024078	0.249003	-15.222245	398.285645	0.193834
9.700000	10.273416	252.001923	0.249015	-15.211480	397.657318	0.194272
9.710000	10.407344	251.894104	0.249254	-14.851404	396.859161	0.194770
9.720000	10.381110	252.150818	0.249434	-14.308328	396.259552	0.195352
9.730000	10.382952	252.474503	0.249363	-13.907885	395.582947	0.195722
9.740000	10.463493	252.482498	0.249289	-13.469765	394.883575	0.196125
9.750000	10.332786	253.868637	0.249390	-13.368577	395.442596	0.196616
9.760000	10.422993	253.986557	0.249380	-12.837343	394.827271	0.196901
9.770000	10.487426	254.918777	0.249479	-12.874482	395.267487	0.197495
9.780000	10.657713	255.506042	0.249501	-12.532705	395.288391	0.198346
9.790000	10.581314	256.189239	0.249606	-12.034304	395.290802	0.199132
9.800000	10.824319	257.058807	0.249712	-11.880908	394.913757	0.199792
9.810000	11.199412	257.567505	0.249756	-11.377663	394.067322	0.200336
9.820000	10.971595	259.076111	0.249750	-11.519755	394.339874	0.200814
9.830000	10.969754	259.517639	0.249584	-11.197893	393.372345	0.201242
9.840000	10.940299	260.785095	0.249462	-11.012742	392.600708	0.201649
9.850000	10.940760	261.538727	0.249310	-10.929315	391.304657	0.201971
9.860000	10.854235	262.803864	0.249055	-10.994980	390.343536	0.202175
9.870000	10.841808	263.936340	0.248946	-11.038576	389.141632	0.202032
9.880000	10.864360	264.290009	0.248602	-11.306078	386.854950	0.201378
9.890000	10.486965	265.976898	0.248463	-12.256055	386.121399	0.200721
9.900000	10.650809	266.752686	0.248195	-12.252825	384.781281	0.199989
9.910000	10.521023	268.276459	0.247875	-12.498258	383.989563	0.199569
9.920000	10.335547	269.461334	0.247555	-12.463274	382.757965	0.199215
9.930000	10.200237	270.903687	0.247434	-12.359933	381.824249	0.198991
9.940000	10.223709	272.173889	0.247227	-12.465427	380.167053	0.198431
9.950000	10.386173	272.874664	0.247032	-12.754995	377.769562	0.197345
9.960000	10.069070	274.869629	0.246905	-13.807235	377.046509	0.196349
9.970000	10.178146	275.882690	0.246499	-13.855677	375.604248	0.195296
9.980000	10.083797	277.669128	0.246181	-14.136634	374.546631	0.194635
9.990000	10.006477	279.296387	0.245795	-14.089807	372.864319	0.194304
10.000000	9.826064	280.981750	0.245589	-14.173771	371.618652	0.193962
10.010000	9.876691	282.560120	0.245326	-14.138247	370.288269	0.193815
10.020000	10.044677	283.449188	0.245048	-13.987543	368.411896	0.193641
10.030000	9.592264	285.447266	0.244961	-14.281955	367.851715	0.193599
10.040000	9.806274	286.114471	0.244727	-14.045672	366.466705	0.193474
10.050000	9.813178	287.368347	0.244706	-14.129098	366.169647	0.193941
10.060000	9.912589	288.023163	0.244653	-13.724887	365.839264	0.194654
10.070000	9.762551	288.637146	0.244624	-13.421324	366.098022	0.195708
10.080000	9.879452	288.858856	0.244731	-13.333055	365.924103	0.197134
10.090000	10.133964	288.198578	0.244889	-12.756610	365.318878	0.198403
10.100000	9.989449	288.341461	0.245149	-12.693636	365.946869	0.199786
10.110000	10.298728	287.412262	0.245228	-12.120959	365.409760	0.200975
10.120000	10.277097	286.932770	0.245510	-12.212458	365.828735	0.201940
10.130000	10.439561	285.919495	0.245456	-11.999857	366.037048	0.202892
10.140000	10.421612	285.777832	0.245634	-12.033227	366.630829	0.203979
10.150000	10.413788	285.346436	0.245659	-11.977252	367.009125	0.205055
10.160000	10.411487	284.744781	0.245390	-11.336757	366.738068	0.206237
10.170000	10.050660	285.021973	0.245440	-11.163985	367.622070	0.207587
10.180000	10.158816	283.978577	0.245402	-10.709179	367.441803	0.208363
10.190000	9.964136	283.621552	0.245244	-10.570316	367.954071	0.209441
10.200000	9.960454	282.829346	0.245289	-10.356639	368.417664	0.210323
10.210000	9.794768	282.035370	0.245323	-10.462131	369.621307	0.211404
10.220000	9.647032	280.901917	0.245332	-10.048771	370.521698	0.212685
10.230000	9.936522	279.306732	0.245563	-9.466943	371.069366	0.213756
10.240000	9.709165	278.210693	0.245898	-9.565977	373.003662	0.214894
10.250000	9.878072	276.096588	0.245996	-9.201595	373.643768	0.215725
10.260000	9.818701	274.542175	0.246327	-8.990608	375.518738	0.216715
10.270000	9.850457	272.799774	0.246366	-8.541724	376.553741	0.217430
10.280000	9.709624	271.365112	0.246501	-8.458837	377.913788	0.218031
10.290000	9.648873	270.021332	0.246599	-8.469601	379.436523	0.218458
10.300000	9.608373	268.351105	0.246647	-8.252694	380.436859	0.218746
10.310000	9.382856	267.693481	0.246776	-8.400169	382.443726	0.219133
10.320000	9.591804	266.006378	0.246985	-8.149892	383.149017	0.219253
10.330000	9.601469	265.090027	0.247188	-8.441613	384.519897	0.219277
10.340000	9.718829	263.981018	0.247210	-8.468525	385.168640	0.219022
10.350000	9.734938	263.445038	0.247306	-8.810301	386.161896	0.218682
10.360000	9.571553	263.081268	0.247219	-9.232274	386.980499	0.218100
10.370000	9.471682	262.194733	0.247033	-9.387285	387.644867	0.217630
10.380000	9.124663	262.237305	0.246987	-9.622491	389.481354	0.217471
10.390000	9.208886	261.100311	0.246919	-9.453487	389.827209	0.217233
10.400000	9.040440	260.609711	0.246951	-9.681697	390.882507	0.217100
10.410000	9.265036	259.712524	0.246981	-9.504619	391.481171	0.216989
10.420000	9.198761	259.141357	0.247140	-9.703226	392.513397	0.216873
10.430000	9.242484	258.696228	0.247117	-9.928207	393.306610	0.216674
10.440000	9.400345	257.917542	0.247104	-9.845857	393.745728	0.216627
10.450000	9.184954	258.377502	0.247121	-10.055229	395.377625	0.216713
10.460000	9.288968	257.657898	0.246977	-9.800645	395.537628	0.216956
10.470000	9.232819	257.561615	0.246985	-9.681697	396.355530	0.217278
10.480000	9.364906	257.018982	0.247090	-9.370599	396.697723	0.217545
10.490000	9.259973	256.645294	0.247145	-9.393744	397.319183	0.217908
10.500000	9.265036	255.703369	0.247396	-9.139160	397.579376	0.218134
10.510000	9.595486	254.101929	0.247646	-8.960467	397.664124	0.218103
10.520000	9.347418	253.486435	0.247890	-9.238733	398.855804	0.218004
10.530000	9.604230	252.071091	0.248053	-8.928174	398.943329	0.217735
10.540000	9.511723	251.374329	0.248226	-9.061117	399.819183	0.217328
10.550000	9.629083	250.285660	0.248313	-9.215050	400.205139	0.216688
10.560000	9.705022	249.798218	0.248513	-9.449182	400.703003	0.215726
10.570000	9.714227	249.160553	0.248459	-10.013785	400.757843	0.214578
10.580000	9.716989	248.821198	0.248318	-10.399158	400.698639	0.213234
10.590000	9.484108	249.475952	0.248178	-11.033194	402.001556	0.212318
10.600000	9.360305	249.392075	0.247862	-11.022430	401.879486	0.211374
10.610000	9.169766	249.764801	0.247469	-11.298004	402.398010	0.210826
10.620000	9.192318	249.674454	0.247332	-11.160217	402.226471	0.210513
10.630000	9.114537	249.988617	0.247231	-11.179593	402.708893	0.210352
10.640000	9.081861	250.047165	0.247166	-11.108546	402.760254	0.210252
10.650000	9.246165	249.645386	0.247059	-10.797988	402.419312	0.210247
10.660000	8.948392	250.148621	0.247109	-10.907787	403.224976	0.210508
10.670000	9.082782	249.522263	0.246958	-10.695724	403.103363	0.210839
10.680000	9.134328	249.267258	0.247146	-10.494964	404.014862	0.211477
10.690000	9.243864	248.482788	0.247358	-10.074067	404.454681	0.212113
10.700000	9.236501	248.007599	0.247408	-9.962115	405.171814	0.212700
10.710000	9.469380	247.368088	0.247638	-9.469633	405.507965	0.213369
10.720000	9.675567	246.318817	0.247875	-8.882424	405.644989	0.213620
10.730000	9.463398	246.211578	0.247890	-9.190830	406.786804	0.213811
10.740000	9.603770	245.318192	0.247961	-8.858742	406.747101	0.213803
10.750000	9.570172	245.049301	0.247995	-8.997067	407.438263	0.213613
10.760000	9.491012	244.169800	0.247854	-9.096102	407.552551	0.213198
10.770000	9.536575	244.061066	0.247914	-9.389438	408.010101	0.212828
10.780000	9.556826	243.756958	0.247882	-9.574051	407.633728	0.212222
10.790000	9.593645	243.211334	0.247607	-9.666627	407.087921	0.211504
10.800000	9.195079	243.718613	0.247336	-10.217237	407.454102	0.211023
10.810000	9.315661	243.410919	0.247085	-10.112281	406.806915	0.210459
10.820000	8.976007	243.850372	0.246703	-10.390546	406.726318	0.210003
10.830000	9.042280	243.917191	0.246445	-10.362020	406.203735	0.209650
10.840000	8.830571	244.327316	0.246220	-10.423379	406.365509	0.209385
10.850000	8.738984	244.509384	0.245978	-10.427147	406.336700	0.209120
10.860000	8.926761	244.357391	0.245796	-10.267292	406.172791	0.208640
10.870000	8.679613	244.940567	0.245829	-10.772152	407.007263	0.208277
10.880000	8.802958	244.672852	0.245490	-10.750085	406.620789	0.207739
10.890000	8.718734	245.262909	0.245437	-11.169366	406.973755	0.207232
10.900000	8.748649	245.460815	0.245295	-11.120926	406.429565	0.206800
10.910000	8.641414	246.160095	0.245197	-11.432562	406.362640	0.206310
10.920000	8.679613	246.637558	0.245030	-11.359900	405.514801	0.205796
10.930000	8.879356	246.926682	0.244993	-11.194125	404.141693	0.205065
10.940000	8.680074	248.249084	0.244774	-11.768417	403.853119	0.204303
10.950000	8.851742	248.682938	0.244560	-11.716748	402.571564	0.203363
10.960000	8.722416	249.896515	0.244335	-11.955184	401.925018	0.202450
10.970000	8.695722	250.524918	0.244105	-12.171552	400.638702	0.201192
10.980000	8.592169	251.986511	0.243868	-12.820120	399.847229	0.200007
10.990000	8.724257	252.998169	0.243684	-13.206571	398.957855	0.198726
11.000000	8.749109	253.492844	0.243559	-13.379342	398.368164	0.197617
11.010000	8.554429	255.024078	0.243596	-13.517667	398.813721	0.196994
11.020000	8.793753	255.203430	0.243612	-13.039719	397.870789	0.196158
11.030000	8.794212	255.765778	0.243541	-13.373422	397.831787	0.195394
11.040000	8.846219	255.731857	0.243571	-13.328210	397.525024	0.194525
11.050000	8.880277	256.316956	0.243741	-13.765792	397.869019	0.193754
11.060000	8.854504	256.196259	0.243849	-14.009072	397.622925	0.192867
11.070000	9.217171	256.031860	0.243925	-14.118333	396.890656	0.192062
11.080000	9.149055	256.659515	0.244232	-14.424049	397.124451	0.191453
11.090000	9.329008	256.352325	0.244120	-14.350849	396.358276	0.190726
11.100000	9.239722	256.657227	0.244213	-14.631267	396.328308	0.190193
11.110000	9.411851	256.352112	0.244291	-14.372917	395.952271	0.189542
11.120000	9.242944	256.777496	0.244339	-14.769054	396.211487	0.188951
11.130000	9.281143	257.091705	0.244335	-14.905227	395.809021	0.188395
11.140000	9.413692	256.962769	0.244244	-14.827721	395.272369	0.187862
11.150000	9.165164	257.712524	0.244302	-15.422467	395.522614	0.187396
11.160000	9.363066	257.634583	0.244273	-15.520963	394.761383	0.186989
11.170000	9.259052	258.295074	0.244266	-15.713111	394.395844	0.186884
11.180000	9.312440	258.237701	0.244189	-15.557562	393.888702	0.186730
11.190000	9.076798	258.851959	0.244232	-15.714726	394.077148	0.187134
11.200000	9.256290	258.855194	0.244360	-15.164116	393.635406	0.187414
11.210000	9.427499	258.595001	0.244469	-14.941288	392.836914	0.187630
11.220000	9.209806	259.045380	0.244692	-15.140972	393.239075	0.188044
11.230000	9.531053	258.597076	0.244835	-14.651720	392.988647	0.188445
11.240000	9.387459	258.735046	0.244942	-14.786815	393.394104	0.189166
11.250000	9.552223	258.376801	0.245115	-14.393369	393.351013	0.190141
11.260000	9.549462	258.683716	0.245331	-14.032216	393.769287	0.191283
11.270000	9.624021	258.205994	0.245570	-13.707663	393.589111	0.192151
11.280000	9.876230	257.778473	0.245652	-13.248552	393.273285	0.192889
11.290000	9.676487	258.084686	0.245822	-13.190962	393.692047	0.193638
11.300000	9.767614	257.703796	0.245760	-12.974055	393.103912	0.194010
11.310000	9.569713	258.075806	0.245694	-13.133909	393.210266	0.194565
11.320000	9.733096	257.883728	0.245723	-12.867484	392.933014	0.194982
11.330000	9.500216	258.482483	0.245766	-13.173738	393.497894	0.195514
11.340000	9.655316	258.686371	0.245714	-13.043487	393.464874	0.196462
11.350000	9.663140	258.597260	0.245642	-12.502564	393.040802	0.197583
11.360000	9.508501	259.145447	0.245696	-12.312569	393.206848	0.198639
11.370000	9.531053	258.914246	0.245631	-11.852920	392.324371	0.199514
11.380000	9.516785	259.390320	0.245627	-11.900822	392.083435	0.200388
11.390000	9.593184	259.328247	0.245520	-11.544514	391.484802	0.200993
11.400000	9.329928	259.942932	0.245603	-11.801788	392.036743	0.201786
11.410000	9.380095	260.064453	0.245545	-11.571963	392.105499	0.202816
11.420000	9.364447	259.911957	0.245496	-11.141917	391.853546	0.203764
11.430000	9.235120	260.403168	0.245541	-11.083788	392.128113	0.204644
11.440000	9.364906	259.750305	0.245639	-10.908325	391.747681	0.205190
11.450000	9.262734	259.821747	0.245601	-11.034271	391.907318	0.205826
11.460000	9.257212	259.427155	0.245457	-10.754929	391.462952	0.206315
11.470000	9.082782	259.913086	0.245601	-10.975066	391.920624	0.206909
11.480000	9.097509	259.799103	0.245501	-10.825437	392.116211	0.207448
11.490000	9.064372	259.699341	0.245361	-10.445985	391.878693	0.208042
11.500000	8.815844	260.143372	0.245456	-10.681191	392.264008	0.208474
11.510000	8.976007	259.713501	0.245400	-10.617142	391.560638	0.208563
11.520000	8.803878	260.021790	0.245439	-10.873878	391.523010	0.208712
11.530000	8.959898	259.647705	0.245387	-10.970221	390.736847	0.208670
11.540000	8.648317	260.134186	0.245405	-11.545052	390.793335	0.208786
11.550000	8.662125	259.975067	0.245380	-11.498225	390.393738	0.209138
11.560000	8.756013	259.779846	0.245410	-11.373895	390.141602	0.209604
11.570000	8.546605	260.405914	0.245491	-11.484232	390.499481	0.210298
11.580000	8.687437	260.251648	0.245475	-11.266249	389.827820	0.210810
11.590000	8.640954	260.734863	0.245598	-11.141917	390.020416	0.211452
11.600000	8.750490	260.791473	0.245526	-10.778612	389.096558	0.211903
11.610000	8.485394	261.652496	0.245593	-11.009512	389.204193	0.212220
11.620000	8.628987	262.181488	0.245663	-10.864728	388.732666	0.212558
11.630000	8.756474	262.481628	0.245627	-10.623601	388.503418	0.212931
11.640000	8.532337	263.193542	0.245764	-10.714024	389.490326	0.213524
11.650000	8.814463	263.118256	0.245970	-10.312503	389.453552	0.214033
11.660000	8.848061	263.381836	0.246182	-10.187634	389.830566	0.214616
11.670000	8.957597	262.899078	0.246221	-10.008942	389.724152	0.215024
11.680000	8.978308	263.376099	0.246693	-10.072991	390.353027	0.215496
11.690000	9.018348	263.111786	0.246687	-10.045003	389.942230	0.215759
11.700000	9.122822	262.855408	0.246841	-10.022935	389.581848	0.216070
11.710000	9.011905	263.138855	0.246990	-10.223157	390.154236	0.216603
11.720000	9.149516	262.828430	0.247078	-9.923362	389.687836	0.217139
11.730000	8.961739	262.816833	0.247188	-9.686003	390.248444	0.217759
11.740000	9.209806	262.644867	0.247276	-9.229045	389.721313	0.218587
11.750000	9.053327	262.786469	0.247583	-9.259186	390.757385	0.219547
11.760000	9.123742	262.217529	0.247619	-8.895880	390.629150	0.220505
11.770000	9.462937	261.863251	0.247965	-8.318897	390.088287	0.221679
11.780000	9.305996	261.684326	0.248281	-8.271532	390.367371	0.222721
11.790000	9.507581	260.922394	0.248341	-7.685399	389.935516	0.223710
11.800000	9.425198	260.925659	0.248625	-7.498633	390.259399	0.224588
11.810000	9.626322	260.254089	0.248645	-7.118642	389.998596	0.225212
11.820000	9.237882	260.736694	0.248736	-7.236514	390.624756	0.226095
11.830000	9.357082	260.220459	0.248965	-6.888279	390.594757	0.226755
11.840000	9.511723	259.550873	0.249028	-6.545426	390.658813	0.227421
11.850000	9.369509	259.581177	0.249255	-6.579334	391.651001	0.228067
11.860000	9.704562	258.968262	0.249433	-6.104615	391.769714	0.228584
11.870000	9.491012	259.274414	0.249376	-6.018498	392.365753	0.229064
11.880000	9.799371	259.129272	0.249393	-5.945837	391.811920	0.229456
11.890000	9.505280	259.748291	0.249370	-5.873175	392.712677	0.229947
11.900000	9.763473	259.850311	0.249456	-5.672953	392.288269	0.230034
11.910000	9.708243	260.194275	0.249285	-5.598678	392.041321	0.230233
11.920000	9.653476	261.190735	0.249481	-5.861873	392.549377	0.230322
11.930000	9.807195	261.345764	0.249369	-5.469502	392.013123	0.230496
11.940000	9.672806	262.249481	0.249487	-5.609981	391.888824	0.230380
11.950000	9.919032	262.320404	0.249446	-5.377465	391.170105	0.230341
11.960000	9.749665	263.174072	0.249609	-5.713859	391.248688	0.230046
11.970000	9.811337	263.159821	0.249528	-5.732697	390.530457	0.229531
11.980000	9.833889	263.314117	0.249659	-5.983513	389.864319	0.228970
11.990000	9.682931	263.931335	0.249588	-6.500753	389.740509	0.228394
12.000000	9.757029	263.654663	0.249445	-6.628852	388.944397	0.227883
12.010000	9.621259	263.868011	0.249570	-6.831764	389.082581	0.227625
12.020000	9.786024	263.155609	0.249515	-6.730039	388.478394	0.227361
12.030000	9.623100	263.711060	0.249453	-6.873747	388.492615	0.227330
12.040000	9.667743	263.395782	0.249504	-6.638540	387.751221	0.227099
12.050000	9.723892	263.103241	0.249323	-6.593867	387.516174	0.226758
12.060000	9.385158	263.419128	0.249080	-7.079889	387.626923	0.226330
12.070000	9.513103	263.250488	0.248895	-6.930261	386.727570	0.225971
12.080000	9.438544	263.582642	0.248719	-7.110030	386.764923	0.225703
12.090000	9.629083	263.540192	0.248445	-6.850065	385.716248	0.225191
12.100000	9.464318	264.314484	0.248194	-7.059436	385.941498	0.224585
12.110000	9.546240	264.476929	0.247959	-7.122409	384.655579	0.223426
12.120000	9.508501	264.767639	0.247539	-8.051934	382.889191	0.221693
12.130000	9.254910	265.848358	0.247046	-8.817298	382.318848	0.219803
12.140000	9.279763	266.751770	0.246470	-9.108481	381.637970	0.217908
12.150000	9.061151	268.194855	0.245992	-9.618186	382.059967	0.216199
12.160000	9.256751	268.830414	0.245633	-9.391052	382.126617	0.214579
12.170000	9.092907	270.335327	0.245340	-9.507849	383.357452	0.213233
12.180000	9.211648	270.983948	0.244951	-9.663935	382.940277	0.211747
12.190000	9.252609	271.723114	0.244803	-9.715067	382.585907	0.210251
12.200000	9.351100	273.160675	0.244550	-10.088061	382.287842	0.208684
12.210000	9.591344	273.692780	0.244384	-10.427685	380.958710	0.206782
12.220000	9.651634	275.212738	0.244278	-11.260866	380.138672	0.204788
12.230000	10.109571	276.175232	0.243969	-11.882523	378.031738	0.202362
12.240000	9.861043	278.666046	0.243636	-13.166742	376.724854	0.199719
12.250000	10.097144	280.617706	0.243261	-14.111875	373.980255	0.196900
12.260000	10.200698	282.332428	0.242917	-15.087148	371.422852	0.194004
12.270000	9.854139	284.388672	0.242454	-16.199133	369.599762	0.191284
12.280000	9.868867	285.905548	0.241912	-16.400970	366.971893	0.188848
12.290000	9.955852	287.875793	0.241653	-16.823481	365.097443	0.186553
12.300000	10.220488	288.860291	0.241154	-17.051153	363.271851	0.184641
12.310000	9.870247	290.937775	0.240817	-17.317577	363.715729	0.183873
12.320000	9.940204	291.889923	0.240366	-16.509692	363.279144	0.183523
12.330000	9.849076	292.644836	0.239983	-16.037126	363.154968	0.183371
12.340000	9.762092	293.285706	0.239854	-16.249727	363.969208	0.183493
12.350000	9.951710	292.755371	0.239822	-15.950471	364.767120	0.183951
12.360000	9.960914	291.913483	0.239890	-15.816451	366.521637	0.184785
12.370000	10.307933	290.015106	0.239989	-14.967661	367.126587	0.185733
12.380000	10.224630	288.869904	0.240152	-15.083920	368.824860	0.186859
12.390000	10.344752	286.129547	0.240226	-14.718460	369.723846	0.188050
12.400000	10.540353	283.440063	0.240489	-14.128021	371.154755	0.189515
12.410000	10.749761	281.065033	0.240789	-13.915421	373.375122	0.191063
12.420000	10.853774	278.154175	0.240924	-13.671602	374.725861	0.192501
12.430000	10.928793	276.161621	0.240979	-13.172662	376.664978	0.193991
12.440000	10.940299	273.570282	0.240841	-12.687715	377.364716	0.195237
12.450000	10.441862	272.182281	0.240731	-12.786212	379.163391	0.196339
12.460000	10.215885	269.818024	0.240493	-12.459506	379.910095	0.197383
12.470000	10.117394	267.869415	0.240371	-11.986940	380.613220	0.198245
12.480000	9.859662	266.381348	0.240155	-11.915355	381.418427	0.198979
12.490000	9.880372	264.307159	0.240110	-11.698985	381.847626	0.199400
12.500000	9.683851	263.093323	0.240063	-11.905667	383.386658	0.199635
12.510000	9.888197	261.310852	0.239921	-11.799635	384.083466	0.199511
12.520000	9.566031	261.051514	0.239790	-12.147333	385.892944	0.199565
12.530000	9.592724	259.826935	0.239665	-12.263590	386.820343	0.199208
12.540000	9.401726	258.835266	0.239510	-12.543470	388.223511	0.198871
12.550000	9.332690	258.091827	0.239598	-12.861026	390.622070	0.199141
12.560000	9.174369	256.294373	0.239614	-12.116115	392.720001	0.199979
12.570000	9.172068	255.059143	0.239809	-11.863146	395.149994	0.200948
12.580000	9.610213	252.825348	0.240138	-11.597799	396.902252	0.202036
12.590000	9.621259	251.358200	0.240616	-11.464317	400.015045	0.203299
12.600000	9.887736	249.135742	0.240872	-11.054724	401.606110	0.204279
12.610000	10.066769	247.372665	0.241161	-10.871187	403.640869	0.205358
12.620000	10.089320	246.153595	0.241571	-10.869035	405.513916	0.206575
12.630000	10.406424	244.920410	0.241726	-10.438450	406.464294	0.207690
12.640000	10.510898	244.104980	0.242024	-10.147267	407.794128	0.208776
12.650000	10.558302	242.606491	0.242206	-9.547678	408.047119	0.209711
12.660000	10.527466	242.327240	0.242436	-9.379211	409.382294	0.210575
12.670000	10.802228	241.378586	0.242489	-8.984150	409.247040	0.211062
12.680000	10.951805	241.079132	0.242648	-8.814069	409.089111	0.211309
12.690000	10.637923	240.914230	0.242511	-9.069190	409.088104	0.211386
12.700000	10.554620	240.632263	0.242238	-9.061655	408.261871	0.211379
12.710000	10.389395	240.636902	0.242245	-9.127857	408.267487	0.211312
12.720000	10.420231	239.772659	0.242068	-9.001911	407.509949	0.210883
12.730000	10.108190	239.892181	0.242118	-9.301168	408.471558	0.210658
12.740000	10.513199	239.154861	0.242098	-9.202671	408.259277	0.210021
12.750000	10.521483	238.410461	0.242059	-9.612803	408.726135	0.209174
12.760000	10.412867	237.659348	0.242202	-9.998177	409.620453	0.208354
12.770000	10.487885	236.623032	0.242376	-10.130043	410.440582	0.207602
12.780000	10.341070	235.823303	0.242266	-10.437373	412.160431	0.207155
12.790000	10.471317	233.796982	0.242361	-10.072991	412.826111	0.206772
12.800000	10.326343	232.775192	0.242751	-10.463746	415.383087	0.206729
12.810000	10.576712	230.568939	0.242937	-9.990641	416.880463	0.206538
12.820000	10.717545	228.925995	0.243062	-9.850701	418.659668	0.206472
12.830000	10.808210	227.655594	0.243291	-9.855007	420.544495	0.206285
12.840000	10.756204	225.882172	0.243177	-9.738211	421.816742	0.205863
12.850000	10.672441	224.632095	0.243252	-10.032085	423.252106	0.205283
12.860000	10.731812	222.582642	0.243252	-9.968036	424.176971	0.204603
12.870000	10.419311	221.339615	0.243308	-10.618757	426.463440	0.203897
12.880000	10.430817	219.045639	0.243284	-10.458364	427.682709	0.203232
12.890000	10.367304	216.972824	0.243297	-10.402388	429.311646	0.202508
12.900000	10.552779	215.095245	0.243388	-10.722635	431.038666	0.201519
12.910000	10.735494	212.903915	0.243341	-11.069255	432.194366	0.200055
12.920000	10.607548	211.095779	0.243435	-12.091894	434.554779	0.198270
12.930000	10.473158	208.757050	0.242813	-12.497721	436.965210	0.196430
12.940000	9.817780	207.160828	0.242606	-13.406793	441.045258	0.195181
12.950000	9.809957	204.500778	0.242186	-13.288919	443.870605	0.194306
12.960000	9.595025	201.803589	0.242006	-13.194191	446.768494	0.193577
12.970000	9.316122	199.127838	0.241810	-13.182350	449.466187	0.193086
12.980000	9.185414	195.894821	0.241439	-12.821197	452.144257	0.192524
12.990000	8.839776	193.106522	0.241177	-13.225947	454.995392	0.191803
13.000000	8.838856	189.364990	0.240798	-13.343819	456.864563	0.191058
13.010000	8.300838	186.675674	0.240535	-13.806697	459.860016	0.190610
13.020000	8.085447	183.203018	0.239820	-13.666220	461.145294	0.190001
13.030000	7.888005	180.015152	0.239351	-13.765254	462.728882	0.189435
13.040000	7.595294	177.381943	0.238924	-13.877744	464.502350	0.189091
13.050000	7.524878	174.916046	0.238342	-13.678060	465.621765	0.188702
13.060000	7.423626	173.682281	0.237942	-13.543503	467.422882	0.188343
13.070000	7.820811	172.404709	0.237447	-13.243170	468.335083	0.187963
13.080000	7.408438	172.850433	0.237124	-13.533815	470.328430	0.187706
13.090000	7.567680	172.905029	0.236506	-13.118300	470.690399	0.187423
13.100000	7.673535	174.200119	0.236414	-13.059633	471.500824	0.187386
13.110000	7.832317	175.887787	0.236370	-13.071474	471.814453	0.187539
13.120000	8.212473	178.380417	0.236035	-12.693098	471.008362	0.187939
13.130000	8.561333	181.443268	0.236048	-12.200078	469.529541	0.188307
13.140000	8.726097	183.916214	0.235780	-11.846461	466.111084	0.188123
13.150000	8.281508	187.130310	0.235235	-12.199002	464.277832	0.188115
13.160000	8.348243	189.008682	0.234744	-11.768417	460.750305	0.188019
13.170000	8.099255	191.150116	0.234366	-11.701139	457.333038	0.188024
13.180000	7.987417	193.478607	0.234031	-11.683377	453.385956	0.188168
13.190000	8.185779	195.522263	0.233824	-11.295313	449.434875	0.188274
13.200000	8.190381	198.301682	0.233581	-11.393271	446.182007	0.188212
13.210000	8.546605	200.888840	0.233169	-11.195202	441.922699	0.187597
13.220000	8.485853	204.740875	0.232994	-12.026769	439.249573	0.186828
13.230000	8.502882	207.864517	0.232457	-12.527324	435.679077	0.185801
13.240000	8.261718	211.724472	0.232029	-13.006349	432.809753	0.184889
13.250000	8.239627	215.766037	0.231673	-13.153286	430.087158	0.184201
13.260000	8.313725	219.256073	0.231299	-13.341128	426.969696	0.183559
13.270000	8.189921	223.001923	0.231038	-13.529509	424.145935	0.182981
13.280000	8.618402	226.051926	0.230943	-13.258778	420.545807	0.182389
13.290000	8.386442	229.722046	0.230851	-13.666757	418.503326	0.181821
13.300000	8.517150	232.007019	0.230644	-13.710354	415.065552	0.181139
13.310000	8.552588	234.833527	0.230519	-13.965476	412.205444	0.180550
13.320000	8.475728	237.332092	0.230453	-14.422972	409.401184	0.179955
13.330000	8.541082	239.273422	0.230373	-14.540844	406.913025	0.179268
13.340000	8.704006	241.346237	0.230568	-14.889080	406.006531	0.179090
13.350000	8.916636	242.493759	0.230559	-14.751831	404.833466	0.179177
13.360000	8.672709	244.658783	0.230645	-14.653873	405.523437	0.179635
13.370000	8.987052	245.691284	0.230704	-14.320708	405.106201	0.180252
13.380000	9.030314	247.015198	0.230856	-13.990772	405.339966	0.181085
13.390000	9.088305	247.912704	0.230919	-13.619393	405.249176	0.182101
13.400000	9.368588	248.589554	0.231177	-13.063939	404.534912	0.183017
13.410000	9.252149	249.463516	0.231303	-13.035413	403.893433	0.183947
13.420000	9.537956	249.309204	0.231287	-12.746383	402.356171	0.184701
13.430000	9.336832	250.543579	0.231598	-12.815277	402.032074	0.185713
13.440000	9.635066	250.481049	0.231726	-12.373389	400.450989	0.186424
13.450000	9.686152	251.190231	0.231719	-12.323334	398.663483	0.186843
13.460000	9.676948	252.346863	0.231938	-12.471347	396.370636	0.186715
13.470000	9.674186	253.270401	0.231713	-12.687715	394.510651	0.186477
13.480000	9.358004	254.627335	0.231653	-13.084392	393.385132	0.186221
13.490000	9.484569	255.382996	0.231650	-12.764145	391.488678	0.185914
13.500000	9.178511	257.157776	0.231780	-13.023572	390.790039	0.185884
13.510000	9.253530	258.109039	0.231726	-12.754995	388.865082	0.185614
13.520000	9.332230	259.490906	0.231798	-12.777600	387.962341	0.185552
13.530000	9.256290	260.711609	0.231989	-12.870176	387.075928	0.185352
13.540000	9.336372	262.060883	0.231916	-12.842726	386.082977	0.185111
13.550000	9.424738	263.595062	0.232228	-13.055328	385.596619	0.184832
13.560000	9.590423	264.344177	0.232226	-13.076319	384.139374	0.184279
13.570000	9.338674	266.332733	0.232433	-13.760410	384.011230	0.184218
13.580000	9.534735	267.190247	0.232568	-13.509594	382.983978	0.184355
13.590000	9.462017	268.254517	0.232755	-13.303452	382.316681	0.184966
13.600000	9.518166	269.188995	0.233061	-13.095157	381.625244	0.185910
13.610000	9.780041	269.739624	0.233450	-12.746383	380.985443	0.186992
13.620000	9.826985	270.270386	0.233844	-12.427751	380.569611	0.188002
13.630000	10.187811	270.005524	0.234046	-11.954107	379.864288	0.188786
13.640000	9.947567	270.671326	0.234488	-12.166171	380.610992	0.189674
13.650000	10.322200	270.232727	0.234788	-11.878216	380.474884	0.190261
13.660000	10.303791	270.138824	0.234826	-11.830314	381.086945	0.190878
13.670000	10.337388	269.850464	0.235162	-12.002010	381.715759	0.191443
13.680000	10.283541	269.248505	0.235270	-11.918585	382.122955	0.191941
13.690000	10.185970	268.906616	0.235470	-12.002548	382.778748	0.192450
13.700000	10.507676	267.908661	0.235608	-11.650007	382.861633	0.192938
13.710000	10.082417	268.015106	0.235895	-11.762497	384.235382	0.193445
13.720000	10.169862	266.631073	0.235889	-11.366360	384.390869	0.193658
13.730000	10.054803	265.465363	0.236037	-11.439020	385.404205	0.193793
13.740000	9.825144	263.776306	0.236313	-11.663463	387.053009	0.193979
13.750000	9.882214	262.068787	0.236538	-11.779720	388.527069	0.194156
13.760000	9.735858	260.492187	0.236973	-11.666154	390.478455	0.194706
13.770000	9.905226	258.310883	0.237090	-11.381968	391.628265	0.195123
13.780000	9.507581	257.036957	0.237372	-11.627402	393.992798	0.195902
13.790000	9.675107	254.741837	0.237618	-11.238798	395.319397	0.196691
13.800000	9.771297	252.662521	0.238048	-11.110699	397.603149	0.197508
13.810000	9.584440	250.216721	0.238241	-11.080020	400.283386	0.198577
13.820000	9.472602	247.711838	0.238522	-10.729095	402.549530	0.199834
13.830000	9.351560	245.624893	0.238827	-10.578390	404.738281	0.201106
13.840000	9.476745	242.738220	0.239048	-9.865772	406.099762	0.202244
13.850000	9.227296	240.854965	0.239345	-9.923901	408.780060	0.203591
13.860000	9.226376	238.304459	0.239525	-9.375982	410.385040	0.204604
13.870000	9.281143	236.575974	0.239661	-9.141851	412.339020	0.205653
13.880000	9.439925	235.406815	0.239935	-8.843672	414.221344	0.206592
13.890000	9.416453	233.938919	0.240031	-8.530959	415.826752	0.207344
13.900000	9.219472	233.054428	0.240039	-8.486286	417.620880	0.207870
13.910000	9.414613	231.494720	0.239971	-8.301135	418.423431	0.208178
13.920000	8.902369	231.198608	0.240070	-8.757555	420.379852	0.208600
13.930000	8.906051	230.177032	0.239808	-8.676282	420.992645	0.208903
13.940000	8.699864	229.699875	0.239920	-8.592856	421.939178	0.209484
13.950000	8.576981	229.038391	0.239919	-8.463681	422.803253	0.210066
13.960000	8.557190	228.389771	0.239866	-8.223630	423.110107	0.210688
13.970000	8.530036	227.897079	0.240140	-8.018564	423.893402	0.211277
13.980000	8.787769	226.870209	0.240203	-7.738145	423.768524	0.211773
13.990000	8.520832	227.209702	0.240383	-8.001878	424.868225	0.212414
14.000000	8.647397	226.703842	0.240303	-7.541691	424.579681	0.213023
14.010000	8.495058	226.762146	0.240312	-7.402827	424.665192	0.213669
14.020000	8.436608	226.532013	0.240231	-7.146629	424.835907	0.214081
14.030000	8.570997	226.736511	0.240258	-7.056745	424.512634	0.214449
14.040000	8.582044	227.198242	0.240345	-7.103571	424.266571	0.214583
14.050000	8.919397	227.630371	0.240082	-7.017454	422.498291	0.214379
14.060000	8.666266	229.292374	0.240250	-7.641264	421.938202	0.213948
14.070000	8.671789	230.266571	0.239893	-7.683784	419.688904	0.213164
14.080000	8.439830	231.832886	0.239532	-8.129439	418.310150	0.212441
14.090000	8.335816	233.468338	0.239455	-8.278529	416.893372	0.211756
14.100000	8.479410	235.246429	0.239421	-8.331814	415.435333	0.211290
14.110000	8.299918	237.086029	0.239290	-8.399093	414.276123	0.210876
14.120000	8.549366	238.580688	0.239022	-8.112216	412.451599	0.210503
14.130000	8.220297	240.993362	0.239105	-8.509430	411.737396	0.210222
14.140000	8.247451	241.861145	0.238825	-8.477136	409.840515	0.209703
14.150000	8.245150	243.137299	0.238816	-8.734949	408.574280	0.209309
14.160000	8.383221	244.139786	0.238929	-8.867354	407.418732	0.208804
14.170000	8.431545	244.813858	0.238905	-9.140775	406.089844	0.208281
14.180000	8.517150	245.696060	0.239026	-9.458870	405.148224	0.207687
14.190000	8.720115	246.048950	0.239069	-9.351223	403.377930	0.206913
14.200000	8.395647	247.313309	0.239076	-10.084293	403.013367	0.206023
14.210000	8.611959	247.655762	0.238853	-10.252221	401.290833	0.204920
14.220000	8.482172	248.598434	0.238905	-10.724788	400.232422	0.203608
14.230000	8.560872	249.536606	0.238683	-11.496611	399.274628	0.202025
14.240000	8.452717	250.664764	0.238464	-11.942804	399.014404	0.200684
14.250000	8.425563	252.143341	0.238358	-12.059600	399.457489	0.199625
14.260000	8.521752	252.911789	0.238030	-11.799635	399.097321	0.198488
14.270000	8.043105	254.686676	0.237983	-12.266281	400.399689	0.197621
14.280000	8.533258	255.245392	0.238054	-11.952493	400.540039	0.196775
14.290000	8.562253	255.957977	0.238102	-12.096739	401.113525	0.195869
14.300000	8.803878	256.280457	0.238169	-12.385769	401.190247	0.194932
14.310000	8.874754	256.495941	0.238430	-12.687178	401.003326	0.194050
14.320000	8.907431	256.962097	0.238438	-13.246937	400.655304	0.193152
14.330000	9.131566	256.799896	0.238469	-13.532738	399.252228	0.192513
14.340000	8.965421	257.790771	0.238692	-14.201221	399.152618	0.192364
14.350000	9.065292	257.565765	0.238663	-13.964400	397.220825	0.192240
14.360000	8.996716	258.064545	0.238728	-13.928876	396.037781	0.192480
14.370000	9.049184	258.463196	0.238889	-13.667295	394.015991	0.192552
14.380000	9.146294	258.821014	0.238943	-13.626928	391.526062	0.192174
14.390000	8.946551	259.704376	0.238983	-13.937487	389.476807	0.191691
14.400000	9.108094	259.900085	0.238955	-13.699051	387.934937	0.191207
14.410000	8.738984	261.256805	0.239049	-14.056436	387.739380	0.190796
14.420000	8.925380	261.762787	0.238986	-13.870209	386.825714	0.190482
14.430000	8.869692	262.732330	0.239050	-13.948252	386.680756	0.190197
14.440000	8.814923	263.780457	0.239050	-13.966014	386.291351	0.189815
14.450000	8.777184	264.680298	0.239124	-14.110798	385.882477	0.189473
14.460000	8.874754	265.594238	0.239403	-14.217906	386.011292	0.189394
14.470000	9.049184	265.820526	0.239483	-13.857829	385.482147	0.189281
14.480000	9.022490	267.111725	0.239785	-14.217906	385.877472	0.189462
14.490000	9.256751	266.971466	0.239989	-13.893891	385.114044	0.189758
14.500000	9.252609	267.417480	0.240193	-13.976778	385.150513	0.190243
14.510000	9.371810	267.602539	0.240472	-14.077427	384.869843	0.190862
14.520000	9.476745	267.931610	0.240663	-14.083348	384.752777	0.191946
14.530000	9.398504	268.222534	0.240772	-13.953097	384.866028	0.193392
14.540000	9.549922	267.896698	0.240924	-13.361042	384.546600	0.195238
14.550000	9.317042	268.533905	0.241121	-13.198496	385.859680	0.197859
14.560000	9.451892	267.648315	0.241221	-12.173167	385.819580	0.200686
14.570000	9.466619	267.427063	0.241478	-11.628477	386.109161	0.203584
14.580000	9.682931	267.016418	0.241853	-10.962148	386.258789	0.206433
14.590000	9.591804	266.604004	0.241922	-10.085370	386.255096	0.209107
14.600000	9.502978	266.318665	0.242122	-9.484166	386.562561	0.211684
14.610000	9.789706	265.605560	0.242264	-8.440536	386.380615	0.213877
14.620000	9.529672	265.619202	0.242678	-8.247850	387.389191	0.215862
14.630000	9.782803	264.804962	0.242759	-7.536309	387.418091	0.217418
14.640000	9.681550	264.641785	0.242920	-7.030910	387.533142	0.218666
14.650000	9.666822	264.378296	0.243043	-6.978702	387.462067	0.219361
14.660000	9.667283	264.158325	0.243093	-7.189150	387.504700	0.219692
14.670000	9.528751	263.767303	0.243337	-7.402289	387.783142	0.219828
14.680000	9.709165	262.999329	0.243309	-7.446424	386.941711	0.219671
14.690000	9.340514	263.088287	0.243378	-8.042246	387.551117	0.219590
14.700000	9.405408	262.482361	0.243298	-8.046551	387.000885	0.219459
14.710000	9.188636	262.536011	0.243251	-8.195641	387.450928	0.219330
14.720000	9.050104	262.410461	0.243079	-8.273685	387.886993	0.219154
14.730000	8.983830	262.421173	0.243044	-8.485748	388.614105	0.219112
14.740000	8.790071	262.222382	0.243088	-8.661749	389.920563	0.219202
14.750000	8.871993	261.532318	0.243008	-8.406090	390.135132	0.219376
14.760000	8.669028	261.636719	0.243321	-8.762399	391.240967	0.219794
14.770000	8.887180	260.743286	0.243328	-8.398016	390.875519	0.219962
14.780000	8.841157	260.123444	0.243487	-8.460989	391.494080	0.220135
14.790000	8.907891	259.399200	0.243638	-8.378102	391.380737	0.220271
14.800000	8.957136	258.853210	0.243835	-8.477136	391.473541	0.220150
14.810000	8.804338	258.525177	0.243848	-8.698349	392.141113	0.220055
14.820000	9.032155	257.844543	0.243877	-8.379178	392.367432	0.220011
14.830000	8.764757	258.329437	0.243934	-8.793078	393.759583	0.219940
14.840000	8.904209	257.493439	0.243811	-8.612232	393.456696	0.219698
14.850000	8.797434	257.383789	0.243957	-8.795230	394.150177	0.219446
14.860000	8.703546	257.050964	0.243864	-8.892112	394.766510	0.219114
14.870000	8.679613	256.661743	0.243992	-9.089643	395.858337	0.219017
14.880000	8.539241	256.283386	0.243976	-9.016982	396.948547	0.219158
14.890000	8.734842	255.323227	0.244030	-8.674667	397.201202	0.219189
14.900000	8.408073	255.276596	0.244231	-9.044432	398.575653	0.219386
14.910000	8.707228	253.969681	0.244305	-8.812992	398.700104	0.219516
14.920000	8.651539	253.461838	0.244578	-8.798460	399.321686	0.219674
14.930000	8.713671	252.687180	0.244661	-8.741407	399.225891	0.219710
14.940000	8.972324	252.341888	0.244897	-8.701040	399.509094	0.219787
14.950000	8.854504	251.810516	0.244863	-8.580476	399.854340	0.219677
14.960000	8.906510	250.867187	0.244965	-8.434078	399.832886	0.219460
14.970000	8.673631	251.188232	0.245029	-8.815145	401.168152	0.219382
14.980000	8.850822	250.500031	0.245059	-8.551950	401.433289	0.219195
14.990000	8.702625	250.304108	0.245049	-8.470677	402.226746	0.219140
15.000000	8.927221	250.193909	0.245089	-8.309747	402.479858	0.218966
15.010000	8.768900	250.149582	0.244999	-8.463142	402.830383	0.218664
