time (s)	paretic Fap (N)	paretic Fvert (N)	paretic CPap (m)	non-paretic Fap (N)	non-paretic Fvert (N)	non-paretic CPap (m)
0.000000	10.332326	193.861725	0.233897	-12.009007	372.767639	0.210299
0.010000	10.015682	194.238342	0.233966	-12.301266	373.523437	0.210476
0.020000	10.140867	193.809372	0.233924	-12.168861	373.179901	0.210692
0.030000	10.249943	193.784241	0.233915	-11.979404	373.433197	0.210884
0.040000	10.097605	193.982483	0.234047	-12.057987	374.046295	0.211173
0.050000	10.187811	193.980942	0.233876	-11.907282	374.022003	0.211409
0.060000	10.114173	194.191772	0.234039	-11.852920	374.589722	0.211752
0.070000	10.283080	193.688248	0.233914	-11.573040	374.011505	0.211915
0.080000	10.038694	194.084457	0.234090	-11.785103	374.848755	0.212248
0.090000	10.214505	193.546814	0.234310	-11.537517	374.325562	0.212451
0.100000	10.212204	193.439835	0.234185	-11.468624	374.219177	0.212664
0.110000	10.145009	193.426697	0.234258	-11.569811	374.300293	0.212902
0.120000	10.189652	193.171906	0.234293	-11.407266	374.226898	0.213004
0.130000	10.121997	193.392548	0.234463	-11.441174	374.584991	0.213256
0.140000	10.324502	192.883331	0.234349	-11.258714	374.083099	0.213256
0.150000	10.074593	193.747986	0.234567	-11.493920	374.710510	0.213547
0.160000	10.264211	193.323044	0.234492	-11.281319	374.342102	0.213542
0.170000	10.208982	193.514038	0.234325	-11.311460	374.468689	0.213606
0.180000	10.209442	193.744324	0.234568	-11.328684	374.461975	0.213661
0.190000	10.254545	193.635712	0.234393	-11.221037	374.247803	0.213642
0.200000	10.172163	193.880630	0.234453	-11.347522	374.430054	0.213671
0.210000	10.481903	193.615570	0.234489	-11.067104	373.675262	0.213630
0.220000	10.141788	194.269012	0.234580	-11.443327	374.351257	0.213644
0.230000	10.350275	193.978165	0.234512	-11.331913	373.764709	0.213465
0.240000	10.294586	194.326141	0.234610	-11.337296	373.805695	0.213386
0.250000	10.396298	194.395630	0.234500	-11.309308	373.637177	0.213288
0.260000	10.343832	194.311340	0.234394	-11.349674	373.557220	0.213212
0.270000	10.322201	194.487473	0.234590	-11.370127	373.713501	0.213084
0.280000	10.542654	194.054001	0.234534	-11.254408	373.166504	0.212918
0.290000	10.240278	194.686478	0.234540	-11.602105	373.883118	0.212830
0.300000	10.490187	194.401840	0.234629	-11.403498	373.372711	0.212666
0.310000	10.435419	194.676163	0.234480	-11.589725	373.455688	0.212519
0.320000	10.384792	194.531921	0.234434	-11.603720	373.205811	0.212317
0.330000	10.496631	194.789551	0.234420	-11.560661	373.146576	0.212178
0.340000	10.395378	194.857956	0.234395	-11.835697	373.023712	0.212067
0.350000	10.526546	194.536118	0.234292	-11.517065	372.458344	0.211734
0.360000	10.270654	195.155258	0.234370	-11.915355	373.068817	0.211807
0.370000	10.436339	194.773849	0.234158	-11.526215	372.649231	0.211495
0.380000	10.332326	195.162033	0.234094	-11.948188	372.785736	0.211334
0.390000	10.374208	195.227127	0.234066	-11.727513	372.535187	0.211154
0.400000	10.281240	195.384171	0.233931	-11.869067	372.881226	0.210920
0.410000	10.294586	195.448227	0.233880	-11.936346	372.825745	0.210675
0.420000	10.403202	195.181946	0.233714	-11.778645	372.493439	0.210366
0.430000	10.195635	195.866547	0.233747	-12.094586	373.063293	0.210149
0.440000	10.298728	195.454086	0.233551	-12.014390	372.394440	0.209852
0.450000	10.233375	195.703201	0.233601	-12.073595	372.467316	0.209763
0.460000	10.312535	195.360474	0.233440	-11.969178	371.920013	0.209575
0.470000	10.179527	195.465515	0.233427	-12.145180	371.820221	0.209372
0.480000	10.207141	195.548126	0.233348	-12.089203	371.521637	0.209304
0.490000	10.255466	195.431885	0.233147	-11.998780	371.354767	0.209033
0.500000	9.977483	196.167892	0.233116	-12.298038	372.201141	0.208919
0.510000	10.107269	196.125046	0.233018	-12.140874	371.970734	0.208744
0.520000	9.967358	196.646179	0.232918	-12.349707	372.417297	0.208556
0.530000	10.022125	196.516800	0.232787	-12.209229	372.041656	0.208371
0.540000	9.942965	196.838638	0.232825	-12.418600	372.380768	0.208337
0.550000	9.954471	196.500732	0.232815	-12.265205	371.923157	0.208249
0.560000	10.014762	196.095505	0.232529	-12.273817	371.210144	0.208073
0.570000	9.725733	196.419479	0.232684	-12.479959	371.416931	0.208191
0.580000	9.907066	195.903305	0.232569	-12.380386	370.805359	0.208045
0.590000	9.788785	196.327698	0.232647	-12.504180	370.966797	0.208045
0.600000	10.056183	196.300766	0.232564	-12.344863	370.589661	0.208100
0.610000	9.861043	196.990585	0.232619	-12.458431	371.042542	0.208156
0.620000	9.947107	197.107574	0.232456	-12.366931	370.869843	0.208173
0.630000	10.133043	197.215393	0.232386	-12.140335	370.724701	0.208182
0.640000	9.844014	197.865067	0.232330	-12.342710	371.253021	0.208336
0.650000	10.029950	197.715515	0.232252	-12.061215	370.651733	0.208344
0.660000	9.908907	198.057770	0.232377	-12.243676	370.872009	0.208438
0.670000	10.020285	197.677231	0.232210	-11.842156	370.304504	0.208475
0.680000	9.822383	197.850281	0.232306	-12.193621	370.566711	0.208621
0.690000	9.992670	197.772369	0.232389	-11.863147	370.146423	0.208732
0.700000	10.065388	197.539383	0.232253	-11.756577	369.649475	0.208827
0.710000	9.867486	197.860077	0.232288	-11.981557	370.132080	0.208910
0.720000	10.125218	197.585709	0.232406	-11.817398	369.736267	0.208933
0.730000	9.996813	197.911209	0.232460	-12.023540	369.942566	0.208939
0.740000	10.164800	197.486725	0.232166	-11.887906	369.720245	0.208851
0.750000	9.953090	198.309998	0.232452	-12.155945	370.269012	0.208886
0.760000	10.160657	197.978378	0.232261	-11.979404	369.979736	0.208885
0.770000	10.128901	197.910004	0.232135	-11.904591	369.829742	0.208814
0.780000	10.068150	198.139191	0.232308	-12.102121	370.419220	0.208851
0.790000	10.153294	197.929245	0.232172	-11.874988	370.251038	0.208808
0.800000	10.006477	198.192322	0.232134	-12.147333	370.678741	0.208755
0.810000	10.219108	197.828033	0.232049	-11.796945	370.088501	0.208622
0.820000	9.957232	198.201126	0.232141	-12.146795	370.785614	0.208595
0.830000	10.061707	197.624374	0.232103	-12.069827	370.366608	0.208447
0.840000	10.127060	197.536407	0.232087	-11.984787	370.128326	0.208392
0.850000	9.960914	197.621185	0.232116	-12.146795	370.371429	0.208243
0.860000	10.063547	197.454926	0.232060	-12.083283	370.172028	0.208127
0.870000	10.018444	197.736710	0.232109	-12.282967	370.469269	0.208137
0.880000	10.274336	197.253983	0.231954	-11.956799	370.098572	0.207938
0.890000	9.915351	197.988892	0.232017	-12.426136	370.904907	0.207947
0.900000	10.181368	197.621994	0.231966	-12.174783	370.581482	0.207880
0.910000	10.161577	197.765579	0.231999	-12.120959	370.600525	0.207827
0.920000	10.044678	197.800674	0.231836	-12.224838	370.898621	0.207796
0.930000	10.185970	197.701447	0.231839	-12.097816	370.633362	0.207778
0.940000	9.998194	197.986664	0.231768	-12.232373	370.797546	0.207815
0.950000	10.149611	197.229034	0.231577	-11.986940	370.115845	0.207680
0.960000	9.878072	197.916611	0.231772	-12.349169	370.767548	0.207735
0.970000	10.097605	197.469086	0.231574	-12.041301	370.259918	0.207650
0.980000	9.943425	197.496246	0.231417	-12.155406	370.505798	0.207594
0.990000	9.952169	197.693924	0.231426	-12.181241	370.663422	0.207650
1.000000	9.944806	197.488495	0.231518	-12.075210	370.944611	0.207643
1.010000	9.757950	197.624985	0.231306	-12.261976	371.324371	0.207721
1.020000	10.150992	197.016541	0.231308	-11.811476	370.537994	0.207644
1.030000	10.013842	197.139633	0.231173	-11.846462	370.847900	0.207770
1.040000	10.163878	196.436798	0.231033	-11.606411	370.194550	0.207708
1.050000	10.172624	196.388199	0.231071	-11.671536	370.273132	0.207748
1.060000	10.141327	196.340668	0.230972	-11.700601	370.324341	0.207701
1.070000	10.046058	196.321945	0.230910	-11.761959	370.117798	0.207689
1.080000	10.062166	196.614822	0.231051	-11.849691	370.482788	0.207731
1.090000	10.227391	196.230576	0.230867	-11.560661	369.933136	0.207685
1.100000	9.892339	196.654404	0.230979	-11.860994	370.788879	0.207771
1.110000	10.101747	196.256439	0.230922	-11.594031	370.245056	0.207770
1.120000	10.089781	196.457825	0.230968	-11.708137	370.300232	0.207728
1.130000	10.061707	196.362701	0.230777	-11.676381	370.213074	0.207760
1.140000	10.110951	196.550507	0.230974	-11.662925	370.187012	0.207722
1.150000	10.088861	196.632568	0.231002	-11.732895	370.380188	0.207745
1.160000	10.152833	196.155365	0.230820	-11.578423	370.002136	0.207586
1.170000	9.994051	196.788605	0.231124	-11.867991	370.668396	0.207573
1.180000	10.208061	196.424469	0.230895	-11.687146	370.051178	0.207536
1.190000	10.091621	196.724747	0.230976	-11.770032	370.192505	0.207385
1.200000	10.220028	196.853867	0.231035	-11.720515	369.980286	0.207408
1.210000	10.217266	197.018784	0.230979	-11.751733	370.132782	0.207323
1.220000	10.126599	197.164291	0.230930	-11.845385	370.028290	0.207178
1.230000	10.338769	196.764801	0.230959	-11.712980	369.680084	0.207054
1.240000	10.083797	197.259750	0.231103	-12.028384	370.455841	0.207012
1.250000	10.220028	196.919403	0.231005	-11.928273	369.841064	0.206758
1.260000	10.222789	197.135803	0.231112	-12.048836	370.027130	0.206712
1.270000	10.286302	197.032791	0.231021	-11.985325	369.654297	0.206587
1.280000	10.255466	197.228821	0.231014	-12.116654	369.832001	0.206482
1.290000	10.208982	197.259109	0.231179	-12.139259	369.674377	0.206438
1.300000	10.437720	197.151718	0.231114	-11.971869	369.231995	0.206307
1.310000	10.166640	197.744720	0.231151	-12.320643	369.875549	0.206275
1.320000	10.321740	197.307129	0.231011	-12.058524	369.502930	0.206129
1.330000	10.258227	197.504929	0.231179	-12.233450	369.951141	0.206058
1.340000	10.277097	197.278366	0.231021	-12.213535	369.332031	0.205958
1.350000	10.139026	197.633209	0.231065	-12.248521	369.895752	0.206006
1.360000	10.189192	197.661835	0.231169	-12.304496	370.124237	0.205966
1.370000	10.276176	197.411560	0.230947	-12.153253	370.011230	0.206068
1.380000	10.073212	197.960617	0.231082	-12.322796	370.856384	0.206308
1.390000	10.213124	197.479782	0.231104	-12.111271	370.471069	0.206395
1.400000	10.003256	197.360504	0.231138	-12.218917	370.738434	0.206600
1.410000	10.185050	196.573502	0.231150	-12.080592	370.188171	0.206796
1.420000	9.936522	196.401871	0.231356	-12.188239	370.434692	0.207007
1.430000	10.005096	195.899796	0.231296	-12.249596	370.170868	0.207151
1.440000	10.069530	195.336716	0.231391	-11.986940	370.086304	0.207342
1.450000	9.919493	195.725601	0.231747	-12.308801	370.806610	0.207580
1.460000	10.121997	195.335526	0.231645	-12.003087	370.920258	0.207722
1.470000	10.030870	195.746124	0.231767	-12.140874	371.534607	0.207897
1.480000	10.223710	195.484421	0.231817	-11.883061	371.804718	0.207957
1.490000	10.027649	195.946579	0.231751	-12.106966	372.585083	0.208090
1.500000	10.127060	195.614792	0.231942	-11.991784	372.551483	0.208263
1.510000	10.239358	195.367340	0.232020	-11.756039	372.482666	0.208445
1.520000	10.039154	195.517792	0.232206	-12.008470	372.877502	0.208705
1.530000	10.208061	195.055435	0.232339	-11.776492	372.452637	0.208879
1.540000	10.156975	195.056274	0.232399	-11.780797	372.512817	0.209128
1.550000	10.227391	194.464188	0.232335	-11.571425	371.957153	0.209287
1.560000	10.106810	194.613174	0.232654	-11.795330	372.478851	0.209462
1.570000	10.216806	194.227280	0.232786	-11.626325	372.288605	0.209578
1.580000	10.307473	193.849594	0.232679	-11.601028	372.239685	0.209534
1.590000	10.131662	194.344040	0.232916	-11.728590	372.924988	0.209681
1.600000	10.399060	193.958099	0.232973	-11.616099	372.894409	0.209622
1.610000	10.247642	194.157440	0.233159	-11.828701	373.389343	0.209657
1.620000	10.421612	193.761856	0.233090	-11.566044	373.245056	0.209658
1.630000	10.255926	194.221329	0.233236	-11.884138	373.852692	0.209739
1.640000	10.326803	193.914978	0.233245	-11.724822	373.739594	0.209690
1.650000	10.387554	193.870850	0.233227	-11.592955	373.558075	0.209753
1.660000	10.328183	194.162827	0.233403	-11.814168	374.036530	0.209866
1.670000	10.307473	193.745544	0.233336	-11.677458	373.645630	0.209780
1.680000	10.318058	193.874695	0.233418	-11.809323	374.020752	0.209956
1.690000	10.454749	193.360962	0.233540	-11.533750	373.356140	0.209983
1.700000	10.228312	193.738266	0.233517	-11.904591	373.986969	0.210151
1.710000	10.238438	193.376251	0.233659	-11.694681	373.767151	0.210275
1.720000	10.365923	193.351959	0.233675	-11.654852	373.704834	0.210413
1.730000	10.160657	193.466263	0.233666	-11.814706	374.248901	0.210610
1.740000	10.300109	193.142685	0.233770	-11.541823	374.273102	0.210802
1.750000	10.240739	193.422684	0.233901	-11.700062	374.751617	0.211112
1.760000	10.371446	192.852737	0.233834	-11.408879	374.376678	0.211288
1.770000	10.120156	193.311005	0.233942	-11.617176	375.453766	0.211723
1.780000	10.316677	192.864639	0.234164	-11.455706	375.161987	0.211998
1.790000	10.214965	192.630447	0.233973	-11.286702	375.060486	0.212198
1.800000	10.223249	192.589554	0.234223	-11.404036	375.549164	0.212582
1.810000	10.272955	192.222824	0.234185	-11.142994	375.440521	0.212781
1.820000	10.161577	192.310959	0.234240	-11.331374	375.696960	0.213015
1.830000	10.325882	191.592896	0.234258	-11.133844	375.262390	0.213058
1.840000	10.088861	192.241302	0.234440	-11.383583	376.213898	0.213282
1.850000	10.229692	191.711533	0.234400	-11.234493	375.778442	0.213309
1.860000	10.244420	191.659836	0.234497	-11.263019	375.976654	0.213369
1.870000	10.229692	192.021332	0.234496	-11.344831	376.257812	0.213501
1.880000	10.248102	191.802155	0.234569	-11.268402	376.183563	0.213472
1.890000	10.108190	192.175217	0.234621	-11.320610	376.547791	0.213596
1.900000	10.385253	191.627991	0.234608	-11.107471	376.042999	0.213587
1.910000	10.065388	192.257965	0.234790	-11.393809	376.730560	0.213685
1.920000	10.293205	191.910843	0.234725	-11.190896	376.168121	0.213739
1.930000	10.267432	192.090073	0.234822	-11.144609	376.096344	0.213816
1.940000	10.243039	192.096268	0.234851	-11.331374	376.149445	0.213800
1.950000	10.343371	191.981491	0.234916	-11.191434	375.857849	0.213838
1.960000	10.243960	192.363571	0.235065	-11.346445	376.004761	0.213896
1.970000	10.434958	191.947418	0.235021	-11.097245	375.274628	0.213748
1.980000	10.131662	192.593246	0.235161	-11.494997	375.920441	0.213826
1.990000	10.430817	192.270706	0.235249	-11.356134	375.418549	0.213702
2.000000	10.356258	192.425674	0.235242	-11.395424	375.357880	0.213660
2.010000	10.358099	192.449585	0.235446	-11.451938	375.446960	0.213579
2.020000	10.428055	192.781860	0.235341	-11.534826	375.683868	0.213569
2.030000	10.092542	193.508102	0.235567	-12.049374	376.260406	0.213546
2.040000	10.317138	193.341049	0.235582	-11.841079	375.806885	0.213444
2.050000	10.034552	194.073395	0.235918	-12.256056	376.222534	0.213422
2.060000	10.191032	193.661377	0.235702	-12.120959	375.520203	0.213234
2.070000	10.191032	193.984924	0.235664	-12.204385	375.433716	0.213198
2.080000	10.165720	193.947159	0.235796	-12.232373	375.453033	0.213101
2.090000	10.176305	193.996948	0.235742	-12.268972	375.350891	0.212997
2.100000	10.135345	194.139420	0.235888	-12.433133	375.528656	0.212903
2.110000	10.424373	193.722534	0.235914	-12.199541	375.078247	0.212730
2.120000	9.952630	194.087631	0.236060	-12.601061	375.915314	0.212720
2.130000	10.347974	193.662735	0.235975	-12.382539	375.345764	0.212546
2.140000	10.322201	193.850723	0.236202	-12.466504	375.629547	0.212505
2.150000	10.261449	193.812119	0.236189	-12.409989	375.433533	0.212448
2.160000	10.356258	193.734146	0.236207	-12.443898	375.534149	0.212483
2.170000	10.383412	193.740921	0.236406	-12.473501	375.591644	0.212428
2.180000	10.473619	193.244278	0.236367	-12.255517	375.075470	0.212296
2.190000	10.279859	193.438431	0.236514	-12.626897	375.711426	0.212446
2.200000	10.514580	192.963486	0.236542	-12.360472	375.092834	0.212376
2.210000	10.467635	193.298386	0.236533	-12.610211	375.613617	0.212331
2.220000	10.431737	193.215347	0.236492	-12.537012	375.941620	0.212345
2.230000	10.462573	193.453857	0.236652	-12.606982	376.370117	0.212387
2.240000	10.398600	193.318802	0.236561	-12.575765	376.653595	0.212384
2.250000	10.497090	192.694122	0.236429	-12.464889	376.581238	0.212477
2.260000	10.194715	192.723373	0.236763	-12.709245	377.472900	0.212702
2.270000	10.308393	191.702850	0.236652	-12.477269	376.904785	0.212845
2.280000	10.200237	191.309891	0.236818	-12.506333	377.327545	0.213136
2.290000	10.246262	190.527283	0.237049	-12.336790	377.022583	0.213225
2.300000	10.169401	190.289688	0.237087	-12.356166	377.424347	0.213391
2.310000	10.243039	189.904572	0.237172	-12.386307	377.728668	0.213483
2.320000	10.432198	189.553543	0.237239	-12.176397	377.880310	0.213531
2.330000	10.242119	190.063461	0.237397	-12.457892	379.152832	0.213593
2.340000	10.388935	189.236740	0.237394	-12.213535	379.234467	0.213644
2.350000	10.395839	189.408875	0.237554	-12.382001	380.088501	0.213676
2.360000	10.408265	188.931091	0.237482	-12.161326	380.023407	0.213675
2.370000	10.322201	188.864243	0.237626	-12.307188	380.390045	0.213735
2.380000	10.431737	188.534622	0.237733	-12.169400	380.353455	0.213818
2.390000	10.451527	187.975311	0.237623	-12.065522	379.979370	0.213746
2.400000	10.287683	188.234238	0.237789	-12.308263	380.550201	0.213828
2.410000	10.436339	187.755005	0.237871	-12.046684	380.025940	0.213815
2.420000	10.321280	188.086334	0.237775	-12.307188	380.265350	0.213766
2.430000	10.427595	187.763168	0.237776	-12.120959	380.108368	0.213631
2.440000	10.307013	188.274017	0.237835	-12.345940	380.467072	0.213651
2.450000	10.367764	188.326859	0.237661	-12.399224	380.240479	0.213438
2.460000	10.466254	188.213989	0.237647	-12.292655	380.005157	0.213361
2.470000	10.285842	188.757767	0.237801	-12.624744	380.408508	0.213364
2.480000	10.479602	188.502228	0.237647	-12.453048	379.775085	0.213344
2.490000	10.246721	188.748611	0.237663	-12.571458	380.002899	0.213342
2.500000	10.485125	188.626648	0.237547	-12.321719	379.579620	0.213443
2.510000	10.239818	189.139435	0.237570	-12.442283	379.936768	0.213473
2.520000	10.324962	189.194061	0.237488	-12.325487	379.669495	0.213482
2.530000	10.453368	189.316254	0.237490	-12.133339	379.200195	0.213494
2.540000	10.206681	189.817673	0.237446	-12.361548	379.624359	0.213565
2.550000	10.404583	189.733994	0.237313	-12.221070	378.989990	0.213471
2.560000	10.285842	190.052170	0.237383	-12.340019	379.305573	0.213480
2.570000	10.403202	189.861343	0.237253	-12.172629	378.579254	0.213418
2.580000	10.246721	190.260468	0.237266	-12.479959	378.827545	0.213457
2.590000	10.330025	190.229385	0.237291	-12.333561	378.451630	0.213397
2.600000	10.438641	190.164841	0.237269	-12.245291	378.086456	0.213285
2.610000	10.301029	190.570160	0.237226	-12.459506	378.452240	0.213290
2.620000	10.505375	190.415375	0.237250	-12.278660	378.009583	0.213220
2.630000	10.301029	190.847900	0.237213	-12.501488	378.137512	0.213177
2.640000	10.473619	190.808762	0.236998	-12.278660	377.406250	0.213136
2.650000	10.291365	191.545822	0.237207	-12.430980	377.764465	0.213212
2.660000	10.366843	191.601486	0.236892	-12.381463	377.227600	0.213084
2.670000	10.410106	191.729691	0.236802	-12.292117	376.782501	0.213077
2.680000	10.321280	192.387711	0.236851	-12.401916	376.948761	0.213127
2.690000	10.386173	192.377594	0.236640	-12.347555	376.437134	0.213044
2.700000	10.172163	192.963272	0.236621	-12.496106	376.532684	0.213023
2.710000	10.512738	192.529297	0.236477	-12.210305	375.821838	0.212913
2.720000	10.205760	193.442764	0.236578	-12.533782	376.095978	0.212915
2.730000	10.306552	193.213303	0.236516	-12.451971	375.694611	0.212776
2.740000	10.414708	193.293106	0.236526	-12.372313	375.191101	0.212681
2.750000	10.262369	193.654297	0.236413	-12.571458	375.400635	0.212563
2.760000	10.353497	193.533279	0.236306	-12.457892	374.919586	0.212455
2.770000	10.264211	194.072754	0.236373	-12.565000	375.045105	0.212451
2.780000	10.420691	193.729111	0.236114	-12.408374	374.322479	0.212242
2.790000	10.147310	194.392044	0.236177	-12.636047	374.945984	0.212289
2.800000	10.342911	194.415268	0.236075	-12.485880	374.490906	0.212053
2.810000	10.325882	194.499649	0.235892	-12.488572	374.193909	0.211938
2.820000	10.203919	194.850388	0.235919	-12.721625	374.356018	0.211818
2.830000	10.310695	194.822266	0.235774	-12.502565	373.906372	0.211696
2.840000	10.080115	195.123657	0.235826	-12.787289	374.284271	0.211653
2.850000	10.337849	194.772995	0.235593	-12.520865	373.444214	0.211446
2.860000	10.069530	195.540466	0.235692	-12.881479	374.145935	0.211474
2.870000	10.246721	195.236847	0.235584	-12.737771	373.522552	0.211200
2.880000	10.224630	195.263092	0.235549	-12.750151	373.479797	0.211101
2.890000	10.193794	195.486450	0.235660	-12.852953	373.680145	0.211035
2.900000	10.244420	195.502396	0.235512	-12.763607	373.249207	0.210946
2.910000	10.103588	195.880371	0.235509	-12.936918	373.630676	0.210860
2.920000	10.387094	195.451431	0.235393	-12.626897	372.839111	0.210761
2.930000	10.120617	195.995712	0.235611	-13.093542	373.648499	0.210758
2.940000	10.169401	195.609528	0.235404	-12.852953	373.282318	0.210569
2.950000	10.241199	195.549820	0.235417	-12.860488	373.287262	0.210643
2.960000	10.127060	195.761383	0.235394	-12.951449	373.444733	0.210491
2.970000	10.162958	195.432968	0.235315	-12.983743	373.416077	0.210391
2.980000	10.040996	195.694138	0.235399	-13.090851	373.937561	0.210459
2.990000	10.273875	195.270065	0.235253	-12.877174	373.245026	0.210255
3.000000	9.983006	195.861603	0.235338	-13.254474	374.083282	0.210323
3.010000	10.203919	195.656357	0.235412	-13.011193	373.476990	0.210253
3.020000	10.200698	195.620377	0.235442	-13.002043	373.509796	0.210254
3.030000	10.116014	195.510559	0.235456	-13.103769	373.352661	0.210309
3.040000	10.261449	195.364990	0.235540	-12.914850	373.166199	0.210387
3.050000	10.097144	195.355469	0.235566	-13.161898	373.143005	0.210395
3.060000	10.286762	194.995743	0.235446	-12.764145	372.778320	0.210427
3.070000	10.038694	195.836243	0.235667	-13.172662	373.608154	0.210549
3.080000	10.242119	195.719513	0.235483	-12.887939	373.184509	0.210501
3.090000	10.123838	196.046631	0.235460	-12.931535	373.550690	0.210671
3.100000	10.208982	196.227188	0.235504	-12.896012	373.497070	0.210733
3.110000	10.116474	196.151627	0.235495	-13.003120	373.698395	0.210688
3.120000	10.036393	196.167953	0.235455	-13.063402	373.639374	0.210805
3.130000	10.235676	195.559875	0.235556	-12.808281	373.128296	0.210845
3.140000	10.014762	195.826584	0.235703	-13.177507	373.575287	0.210994
3.150000	10.107269	195.193619	0.235701	-12.876097	372.947723	0.211055
3.160000	10.189652	195.049667	0.235909	-12.914312	373.248596	0.211389
3.170000	10.237977	194.945297	0.235877	-12.777600	373.461487	0.211590
3.180000	10.226471	195.091003	0.236051	-12.707631	373.837250	0.211966
3.190000	10.281699	195.161346	0.236148	-12.559617	374.317993	0.212272
3.200000	10.440022	194.635040	0.236105	-12.293193	374.059113	0.212557
3.210000	10.151913	195.008286	0.236327	-12.549929	374.970581	0.212872
3.220000	10.390776	194.461578	0.236345	-12.155945	374.398041	0.213096
3.230000	10.306552	194.397202	0.236484	-12.230220	374.636719	0.213311
3.240000	10.352116	193.985184	0.236434	-12.089203	374.500336	0.213386
3.250000	10.272955	193.960037	0.236555	-12.061215	374.866608	0.213598
3.260000	10.328183	193.943192	0.236568	-12.071980	374.989136	0.213737
3.270000	10.429896	193.327759	0.236526	-11.934193	374.604431	0.213781
3.280000	10.201158	193.932571	0.236743	-12.143027	375.577789	0.213930
3.290000	10.434498	193.252518	0.236722	-12.025693	375.290894	0.213889
3.300000	10.324502	193.278809	0.236649	-12.069289	375.785095	0.213940
3.310000	10.368685	192.877914	0.236738	-12.021386	375.700653	0.213965
3.320000	10.311615	193.047028	0.236746	-12.092971	375.884888	0.213957
3.330000	10.287683	192.711746	0.236728	-12.165094	375.905945	0.213915
3.340000	10.478681	192.356995	0.236661	-11.905129	375.683533	0.213840
3.350000	10.183669	192.768311	0.236828	-12.308263	376.382233	0.213751
3.360000	10.418390	192.379105	0.236668	-12.060139	376.075836	0.213653
3.370000	10.347513	192.616791	0.236844	-12.192544	376.560486	0.213577
3.380000	10.407804	192.298981	0.236706	-12.069289	376.377380	0.213424
3.390000	10.252705	192.376312	0.236644	-12.301266	376.779907	0.213338
3.400000	10.287222	192.174744	0.236653	-12.184471	376.728485	0.213287
3.410000	10.444624	191.769608	0.236702	-12.076286	376.371857	0.213128
3.420000	10.116935	192.082870	0.236656	-12.353475	376.998688	0.213126
3.430000	10.394917	191.830887	0.236690	-12.162403	376.539246	0.213070
3.440000	10.216806	192.157669	0.236639	-12.196312	376.723969	0.212999
3.450000	10.411026	191.798050	0.236471	-12.052066	376.334015	0.212912
3.460000	10.209442	192.249435	0.236708	-12.204385	376.755798	0.212984
3.470000	10.327723	192.065109	0.236535	-12.157559	376.406677	0.212932
3.480000	10.404583	191.813080	0.236449	-12.113962	376.054474	0.212829
3.490000	10.283541	192.189941	0.236548	-12.261976	376.606384	0.212861
3.500000	10.431276	191.919754	0.236463	-12.081130	376.011993	0.212701
3.510000	10.301949	192.211151	0.236471	-12.249596	376.087250	0.212730
3.520000	10.514580	191.644608	0.236555	-11.978866	375.442535	0.212654
3.530000	10.331865	192.161972	0.236540	-12.097278	375.842896	0.212609
3.540000	10.436799	191.829041	0.236472	-12.072518	375.371216	0.212549
3.550000	10.633321	191.722961	0.236613	-11.831391	374.881958	0.212414
3.560000	10.509057	191.854538	0.236641	-12.015466	374.817932	0.212374
3.570000	10.620894	191.459076	0.236507	-11.907820	374.214691	0.212171
3.580000	10.671520	191.822418	0.236536	-11.962181	374.567657	0.212069
3.590000	10.869883	191.672211	0.236484	-11.762497	374.297455	0.211840
3.600000	10.702817	192.218414	0.236472	-12.121497	375.361084	0.211676
3.610000	10.932936	192.150360	0.236423	-12.025693	375.404358	0.211423
3.620000	10.945362	191.997421	0.236107	-12.041301	375.563599	0.211071
3.630000	10.710180	192.261703	0.235982	-12.387922	376.080719	0.210800
3.640000	10.770011	191.957581	0.235735	-12.383616	375.694000	0.210421
3.650000	10.428975	192.169235	0.235517	-12.803436	375.764069	0.210091
3.660000	10.354877	191.548660	0.235133	-12.871253	374.680084	0.209640
3.670000	9.916271	192.275055	0.235019	-13.395490	374.885925	0.209465
3.680000	9.867947	191.953796	0.234509	-13.391722	374.356812	0.209150
3.690000	9.735858	192.123810	0.234143	-13.472457	374.294037	0.208910
3.700000	9.557286	192.578156	0.234091	-13.710355	374.821686	0.208743
3.710000	9.624021	192.568741	0.233810	-13.617240	375.085785	0.208584
3.720000	9.359384	192.987579	0.233649	-13.977855	375.958221	0.208480
3.730000	9.601929	192.921600	0.233478	-13.682367	375.925781	0.208371
3.740000	9.152277	193.707443	0.233405	-14.157624	376.935516	0.208462
3.750000	9.206585	193.262466	0.233115	-14.072584	376.582092	0.208445
3.760000	9.155959	193.258041	0.233069	-14.088731	376.291718	0.208612
3.770000	8.916176	193.086182	0.232948	-14.107569	376.275543	0.208726
3.780000	8.929982	192.627151	0.232850	-14.121563	375.736725	0.208724
3.790000	8.715052	192.688782	0.233086	-14.204451	375.978943	0.208932
3.800000	8.838856	192.420700	0.232885	-13.942871	375.363220	0.208886
3.810000	8.569157	193.195663	0.232917	-14.319632	376.112885	0.209169
3.820000	8.762917	193.153595	0.232971	-14.076891	375.853668	0.209219
3.830000	8.823208	193.412170	0.233041	-14.022529	376.211395	0.209291
3.840000	8.726097	193.881500	0.232948	-14.020376	376.183624	0.209541
3.850000	8.888101	194.128662	0.233143	-13.833610	375.930450	0.209724
3.860000	8.821827	194.339416	0.233338	-13.910577	376.096649	0.209985
3.870000	9.057929	194.050720	0.233340	-13.468689	375.122498	0.210260
3.880000	8.927221	194.337448	0.233985	-13.724349	375.647919	0.210707
3.890000	9.152277	193.884766	0.233917	-13.330364	374.723114	0.211067
3.900000	9.150896	194.058121	0.234192	-13.265238	374.407745	0.211432
3.910000	9.222693	194.145905	0.234303	-12.988587	374.430695	0.211921
3.920000	9.435783	194.364655	0.234623	-12.817969	374.102478	0.212216
3.930000	9.418294	194.553558	0.234952	-12.807741	374.378510	0.212582
3.940000	9.782342	194.420471	0.235021	-12.307188	373.892731	0.212880
3.950000	9.559127	195.076263	0.235386	-12.473501	374.743896	0.213358
3.960000	9.875310	194.569107	0.235601	-12.182318	374.330841	0.213669
3.970000	9.914890	194.561951	0.235915	-11.930425	374.733307	0.214204
3.980000	10.098525	194.199127	0.236221	-11.733971	374.761230	0.214695
3.990000	10.107730	193.867249	0.236364	-11.620404	374.795746	0.215159
4.000000	10.182749	193.654755	0.236795	-11.473468	375.076080	0.215643
4.010000	10.501233	192.982590	0.237016	-11.120926	374.832550	0.215847
4.020000	10.284461	193.283859	0.237205	-11.415877	375.731049	0.216170
4.030000	10.507676	192.762131	0.237353	-11.137612	375.508392	0.216292
4.040000	10.428515	193.113937	0.237446	-11.280781	375.836426	0.216438
4.050000	10.438641	193.004547	0.237432	-11.334066	375.928284	0.216421
4.060000	10.406424	193.108521	0.237586	-11.354519	376.225311	0.216442
4.070000	10.367304	193.259613	0.237736	-11.512758	376.457458	0.216381
4.080000	10.464414	192.954575	0.237559	-11.461626	376.192200	0.216208
4.090000	10.207602	193.555084	0.237658	-11.812015	376.863098	0.216273
4.100000	10.377889	193.258301	0.237614	-11.677996	376.385956	0.216072
4.110000	10.175845	193.279800	0.237638	-11.849691	376.492371	0.216066
4.120000	10.220948	193.264130	0.237642	-11.833544	376.180573	0.216012
4.130000	10.194715	193.478119	0.237696	-12.103736	376.031769	0.215894
4.140000	10.033631	193.364990	0.237623	-12.125804	376.046021	0.215732
4.150000	10.243039	193.353424	0.237606	-11.975637	375.397217	0.215721
4.160000	9.966437	193.712799	0.237892	-12.492338	375.996887	0.215564
4.170000	10.124759	193.676147	0.237566	-12.190929	375.299683	0.215542
4.180000	10.057104	194.023682	0.237831	-12.338942	375.910309	0.215495
4.190000	10.134884	193.953659	0.237648	-12.141412	375.813446	0.215425
4.200000	10.073212	194.353134	0.237756	-12.310416	376.264557	0.215396
4.210000	10.139946	194.474075	0.237807	-12.239908	376.600922	0.215312
4.220000	10.226011	194.069229	0.237619	-12.098891	376.335144	0.215272
4.230000	9.925936	194.635117	0.237723	-12.467580	376.673584	0.215297
4.240000	10.113253	194.114471	0.237798	-12.225376	375.966553	0.215254
4.250000	9.981625	193.926239	0.237958	-12.413219	376.055939	0.215246
4.260000	10.038234	193.500885	0.237801	-12.316337	375.421448	0.215222
4.270000	9.952630	193.644287	0.237983	-12.362087	375.824127	0.215337
4.280000	9.945266	193.455658	0.237969	-12.307188	375.698425	0.215387
4.290000	10.032711	193.277237	0.237958	-12.151100	375.434418	0.215446
4.300000	9.890498	193.778778	0.238114	-12.279199	376.281311	0.215688
4.310000	10.086559	193.624313	0.237950	-12.011160	375.997345	0.215712
4.320000	9.936061	193.850754	0.237982	-12.144642	376.534210	0.215887
4.330000	10.046518	193.629944	0.238032	-11.871758	376.545898	0.215872
4.340000	9.978864	193.968079	0.238141	-12.103198	377.202057	0.215935
4.350000	9.949868	193.893066	0.237913	-12.024616	377.228912	0.215874
4.360000	10.148691	193.564804	0.237930	-11.931502	376.908508	0.215949
4.370000	9.815479	193.802307	0.238037	-12.203309	377.571472	0.215919
4.380000	10.035012	193.303986	0.237981	-12.137645	376.783051	0.215856
4.390000	9.828826	193.266739	0.238196	-12.292117	377.081848	0.215825
4.400000	10.012921	192.764114	0.238010	-12.059601	376.755402	0.215784
4.410000	9.830667	193.148422	0.238228	-12.367469	377.107300	0.215840
4.420000	9.924556	192.788223	0.238236	-12.173168	376.922913	0.215847
4.430000	10.012000	192.715561	0.238188	-12.027308	376.820404	0.215882
4.440000	9.840332	193.118164	0.238147	-12.280814	377.353088	0.215957
4.450000	10.013842	193.014542	0.238324	-12.017081	377.097717	0.216061
4.460000	9.940663	193.419510	0.238351	-12.219455	377.605865	0.216145
4.470000	10.107730	193.064835	0.238161	-11.958951	377.153656	0.216114
4.480000	9.930079	193.839798	0.238366	-12.196850	377.698700	0.216238
4.490000	10.118775	193.586990	0.238298	-12.067675	377.217316	0.216229
4.500000	10.117855	193.468582	0.238237	-12.002010	376.910187	0.216144
4.510000	10.067229	193.823212	0.238319	-12.133339	377.024506	0.216214
4.520000	10.181828	193.564011	0.238437	-12.053142	376.406342	0.216133
4.530000	10.015682	193.629745	0.238440	-12.274355	376.691956	0.216065
4.540000	10.324041	193.372925	0.238266	-12.039148	376.039459	0.216064
4.550000	9.956772	193.998901	0.238456	-12.357781	376.820831	0.215988
4.560000	10.141788	193.657120	0.238210	-12.203847	376.692535	0.215841
4.570000	10.150072	193.558350	0.238382	-12.268434	376.753571	0.215835
4.580000	10.063547	193.784424	0.238390	-12.347555	377.189148	0.215802
4.590000	10.079656	193.471787	0.238216	-12.316876	377.114929	0.215753
4.600000	10.002336	193.796829	0.238373	-12.449818	377.445129	0.215751
4.610000	10.205760	193.394684	0.238122	-12.207615	376.990204	0.215772
4.620000	9.866105	193.786865	0.238135	-12.581146	377.672974	0.215873
4.630000	10.006938	193.490082	0.238125	-12.400839	377.162781	0.215891
4.640000	9.946186	193.325531	0.238211	-12.373390	377.159393	0.215904
4.650000	9.887736	193.447952	0.238064	-12.508485	377.406067	0.215926
4.660000	9.930079	193.186768	0.238091	-12.475654	377.181976	0.215977
4.670000	9.805354	193.439133	0.238068	-12.496645	377.680969	0.216025
4.680000	10.069990	192.886200	0.238046	-12.341096	377.116058	0.215951
4.690000	9.846775	193.433075	0.238183	-12.579532	378.092438	0.216159
4.700000	10.036393	192.858612	0.238192	-12.353475	377.825836	0.216173
4.710000	9.977483	192.846436	0.238106	-12.196850	378.078613	0.216444
4.720000	9.965516	192.639511	0.238159	-12.258209	378.426819	0.216639
4.730000	10.057104	192.120056	0.238365	-12.035919	378.523956	0.216794
4.740000	9.809957	192.163666	0.238125	-12.195235	378.648376	0.217028
4.750000	10.106349	191.551926	0.238224	-11.913202	378.226898	0.217092
4.760000	9.861503	192.098312	0.238336	-12.164556	379.397736	0.217221
4.770000	9.936522	191.748550	0.238103	-11.996090	378.943726	0.217224
4.780000	9.925015	192.062103	0.238146	-12.019772	379.233734	0.217240
4.790000	9.900163	192.052078	0.237983	-11.911049	379.355774	0.217298
4.800000	9.805814	191.835846	0.237821	-12.013851	379.070770	0.217249
4.810000	9.754727	191.752853	0.237871	-12.169400	379.047485	0.217219
4.820000	9.934681	191.015564	0.237869	-11.843770	378.208984	0.217168
4.830000	9.618037	191.353821	0.238104	-12.378771	378.789978	0.217127
4.840000	9.820082	190.882690	0.237955	-12.024078	378.319183	0.217139
4.850000	9.882674	190.914459	0.238047	-12.082207	378.733398	0.217059
4.860000	9.830667	191.036057	0.237930	-12.100506	378.937958	0.217026
4.870000	9.920874	191.355667	0.237878	-12.047222	379.359406	0.217059
4.880000	9.871168	191.679001	0.237840	-12.016005	379.673157	0.217043
4.890000	9.979784	191.197617	0.237728	-11.885214	379.279175	0.216941
4.900000	9.781882	191.678635	0.237834	-12.036996	380.164978	0.217012
4.910000	9.936522	191.253021	0.237705	-11.773262	379.306763	0.216986
4.920000	9.855060	191.206680	0.237648	-11.848615	379.301239	0.216924
4.930000	9.913970	190.836441	0.237723	-11.804480	378.941223	0.216896
4.940000	9.922255	190.902817	0.237866	-11.807171	378.795349	0.216780
4.950000	9.829746	190.816574	0.237614	-11.831391	378.923340	0.216695
4.960000	10.063547	190.334854	0.237713	-11.592417	378.476807	0.216548
4.970000	9.815939	190.914032	0.237771	-11.964334	379.281250	0.216448
4.980000	9.987147	190.412460	0.237562	-11.791024	378.908539	0.216200
4.990000	9.925936	190.395035	0.237616	-11.883061	379.104156	0.216060
5.000000	10.101287	190.037643	0.237669	-11.885214	378.927124	0.215877
5.010000	9.983926	189.915909	0.237672	-11.959490	379.214264	0.215630
5.020000	9.976102	189.951187	0.237636	-11.925043	379.544098	0.215629
5.030000	10.272494	189.538879	0.237460	-11.793177	379.269043	0.215394
5.040000	9.972880	190.117889	0.237539	-12.117192	380.242126	0.215244
5.050000	10.260989	189.732117	0.237421	-11.932578	380.174194	0.214974
5.060000	10.168021	189.930634	0.237418	-12.148947	380.917084	0.214865
5.070000	10.111412	189.667419	0.237024	-12.172629	381.089386	0.214543
5.080000	10.001875	189.696701	0.236964	-12.353475	381.615875	0.214331
5.090000	9.873469	189.468887	0.236698	-12.569843	381.567169	0.214144
5.100000	9.693976	188.824387	0.236539	-12.476192	381.203033	0.213841
5.110000	9.372731	188.984482	0.236354	-12.958446	381.795410	0.213749
5.120000	9.468460	188.496445	0.236205	-12.781368	381.176147	0.213498
5.130000	9.289428	188.362701	0.236074	-13.120454	381.672394	0.213229
5.140000	9.298172	188.146225	0.235823	-13.056405	381.452545	0.213094
5.150000	9.091065	188.396255	0.235909	-13.279232	382.153900	0.212895
5.160000	9.113157	188.490906	0.235665	-13.336285	382.135345	0.212713
5.170000	9.212108	188.446304	0.235552	-13.302376	381.892395	0.212544
5.180000	8.973705	188.928436	0.235569	-13.646306	382.638184	0.212405
5.190000	9.000399	188.593201	0.235286	-13.515516	382.232178	0.212362
5.200000	8.964040	188.720169	0.235393	-13.699590	382.454254	0.212297
5.210000	9.038599	188.348999	0.235407	-13.502060	381.934357	0.212324
5.220000	8.778564	188.708206	0.235332	-13.684520	382.231476	0.212317
5.230000	8.913875	188.473907	0.235335	-13.514439	381.969086	0.212392
5.240000	9.010524	188.301254	0.235526	-13.316370	381.604706	0.212391
5.250000	8.877055	188.746185	0.235593	-13.548347	382.116119	0.212461
5.260000	9.096128	188.446671	0.235772	-13.277618	381.652802	0.212505
5.270000	9.201982	188.830383	0.236022	-13.294303	381.755585	0.212705
5.280000	9.367668	188.500595	0.235965	-13.017651	381.262238	0.212724
5.290000	9.305536	188.917435	0.236248	-13.065555	381.741791	0.213024
5.300000	9.481807	188.804291	0.236440	-12.832500	381.438721	0.213134
5.310000	9.693976	188.450760	0.236563	-12.704402	380.992798	0.213224
5.320000	9.622179	188.825302	0.236738	-12.770604	381.316925	0.213367
5.330000	9.891878	188.544525	0.237028	-12.534321	380.824890	0.213390
5.340000	9.824684	188.713455	0.237024	-12.639275	380.871124	0.213586
5.350000	10.076434	188.343079	0.237177	-12.309878	380.422577	0.213577
5.360000	9.901544	188.835861	0.237494	-12.446051	380.708038	0.213826
5.370000	10.058024	188.615036	0.237361	-12.305573	380.216522	0.213862
5.380000	10.255466	188.559158	0.237527	-12.188776	380.083405	0.213905
5.390000	10.149151	189.054962	0.237681	-12.327640	380.593201	0.214002
5.400000	10.282620	188.675064	0.237518	-12.236141	380.334045	0.213991
5.410000	10.201618	189.081345	0.237778	-12.332484	380.403778	0.214030
5.420000	10.388935	188.625183	0.237624	-12.118269	379.932678	0.214015
5.430000	10.087939	189.199341	0.237731	-12.460044	380.340179	0.214049
5.440000	10.206221	188.943192	0.237628	-12.246906	380.016937	0.213968
5.450000	10.224630	188.910126	0.237694	-12.287273	379.912292	0.213923
5.460000	9.978403	189.177292	0.237615	-12.445513	380.414612	0.213931
5.470000	10.119696	188.920486	0.237667	-12.400839	380.175751	0.213808
5.480000	9.916271	189.178391	0.237600	-12.571997	380.613037	0.213809
5.490000	10.120156	188.558304	0.237384	-12.416987	380.238770	0.213570
5.500000	9.755649	189.006271	0.237573	-12.805589	380.996216	0.213646
5.510000	9.948948	188.626587	0.237438	-12.643043	380.796692	0.213578
5.520000	9.880833	188.365158	0.237461	-12.755534	380.751434	0.213420
5.530000	9.699039	188.509140	0.237464	-12.898164	381.143768	0.213472
5.540000	9.865185	188.201767	0.237476	-12.785675	381.003448	0.213426
5.550000	9.553604	188.299057	0.237551	-13.016037	381.313751	0.213351
5.560000	9.855520	187.796555	0.237404	-12.798591	380.444489	0.213331
5.570000	9.485950	188.290482	0.237547	-13.130680	381.187012	0.213489
5.580000	9.645652	187.921890	0.237370	-13.019804	380.721649	0.213354
5.590000	9.664521	188.404541	0.237405	-13.041872	380.987122	0.213407
5.600000	9.513103	188.964081	0.237442	-13.091928	381.392853	0.213384
5.610000	9.645652	189.074371	0.237265	-13.151671	381.196198	0.213349
5.620000	9.412771	189.493988	0.237341	-13.153824	381.399048	0.213418
5.630000	9.699499	189.169098	0.237266	-12.921308	380.659637	0.213413
5.640000	9.359844	189.648956	0.237468	-13.342205	381.087372	0.213471
5.650000	9.511723	188.998856	0.237557	-13.087621	380.407959	0.213463
5.660000	9.549462	188.964218	0.237763	-13.111842	380.013641	0.213598
5.670000	9.515864	188.646027	0.237740	-13.004196	380.074982	0.213730
5.680000	9.580758	188.698044	0.237868	-12.964367	379.773560	0.213895
5.690000	9.622179	189.014099	0.238078	-12.924000	380.056702	0.214176
5.700000	9.833428	188.600937	0.238135	-12.574688	379.708252	0.214208
5.710000	9.704102	189.417877	0.238311	-12.929382	380.597046	0.214495
5.720000	9.955852	189.249619	0.238371	-12.487495	380.382263	0.214619
5.730000	9.950788	189.390930	0.238461	-12.593526	380.508606	0.214668
5.740000	9.993131	189.433777	0.238663	-12.526786	380.518372	0.214844
5.750000	10.069070	189.481888	0.238690	-12.451971	380.339325	0.214979
5.760000	9.984846	189.517822	0.238718	-12.518711	380.526031	0.215044
5.770000	10.219108	189.129242	0.238744	-12.254979	379.732208	0.215102
5.780000	9.929618	189.680557	0.238957	-12.497183	380.390259	0.215297
5.790000	10.151913	189.311783	0.238853	-12.222147	379.774689	0.215366
5.800000	10.047899	189.479507	0.239019	-12.247982	379.770569	0.215610
5.810000	10.129361	189.537079	0.239021	-12.030536	379.746155	0.215860
5.820000	10.081036	189.493073	0.239029	-12.108042	379.738525	0.216041
5.830000	10.012000	189.806702	0.239060	-12.067675	380.009491	0.216306
5.840000	10.222789	189.415909	0.239000	-11.823856	379.457214	0.216498
5.850000	9.905226	190.077896	0.239159	-12.154868	380.163361	0.216726
5.860000	10.115093	189.756378	0.239127	-11.894903	379.374512	0.216856
5.870000	10.003716	189.898544	0.239157	-11.904052	379.617493	0.217012
5.880000	10.038234	189.865402	0.239124	-11.982634	379.371155	0.217022
5.890000	10.006018	189.921204	0.239029	-11.872835	379.596405	0.217148
5.900000	10.045137	190.313934	0.239123	-11.957338	379.611969	0.217171
5.910000	10.082417	189.934525	0.238908	-11.844309	379.245117	0.217072
5.920000	9.772677	190.630112	0.239064	-12.164556	379.793945	0.217146
5.930000	10.012461	190.317734	0.238857	-11.930964	379.263367	0.217063
5.940000	9.801211	190.449646	0.238866	-12.183932	379.463623	0.217009
5.950000	9.871168	190.572144	0.238801	-12.143565	378.975128	0.216948
5.960000	9.851377	190.843597	0.238842	-12.112348	379.144287	0.216917
5.970000	9.716528	191.178482	0.238669	-12.224300	378.922150	0.216835
5.980000	9.903384	190.949219	0.238581	-12.161326	378.403717	0.216771
5.990000	9.652555	191.906601	0.238700	-12.450356	378.928040	0.216758
6.000000	9.769916	191.679138	0.238563	-12.317952	378.336334	0.216540
6.010000	9.709624	192.220078	0.238514	-12.506871	378.421326	0.216514
6.020000	9.781882	192.183350	0.238471	-12.344863	378.151093	0.216416
6.030000	9.749665	192.423065	0.238527	-12.532168	378.140167	0.216343
6.040000	9.755649	192.610916	0.238527	-12.511176	377.909760	0.216247
6.050000	9.903845	192.503311	0.238454	-12.273279	377.520752	0.216225
6.060000	9.609753	193.108322	0.238469	-12.624205	378.134949	0.216200
6.070000	9.834809	192.781128	0.238425	-12.370698	377.576294	0.216073
6.080000	9.779120	193.251419	0.238567	-12.475654	377.943726	0.216091
6.090000	9.793387	192.926865	0.238402	-12.447128	377.405487	0.215994
6.100000	9.715608	193.223953	0.238524	-12.620437	377.564667	0.216024
6.110000	9.744602	193.294449	0.238475	-12.467042	377.390106	0.216010
6.120000	9.815019	193.009354	0.238310	-12.465966	377.001648	0.215963
6.130000	9.656697	193.590866	0.238551	-12.700095	377.662231	0.215981
6.140000	9.766233	193.357651	0.238406	-12.399224	376.983429	0.216076
6.150000	9.725733	193.613342	0.238451	-12.600523	377.308075	0.216103
6.160000	9.775438	193.468536	0.238388	-12.454663	376.802673	0.216171
6.170000	9.674646	193.725861	0.238391	-12.476730	377.134796	0.216266
6.180000	9.780501	193.735291	0.238415	-12.442283	376.898010	0.216334
6.190000	9.822383	193.624405	0.238361	-12.232373	376.572296	0.216522
6.200000	9.674646	194.182632	0.238510	-12.367469	377.288940	0.216768
6.210000	9.865185	193.780411	0.238467	-12.150562	376.634613	0.216923
6.220000	9.704102	193.995666	0.238499	-12.156483	376.966217	0.217137
6.230000	9.924095	193.560699	0.238552	-11.973484	376.503021	0.217296
6.240000	9.743682	193.714432	0.238588	-12.074133	376.790619	0.217473
6.250000	9.832968	193.704590	0.238583	-11.982634	376.586853	0.217592
6.260000	9.956312	193.418854	0.238542	-11.794253	376.294403	0.217669
6.270000	9.776819	193.968613	0.238534	-12.027846	376.741943	0.217781
6.280000	9.866105	193.568893	0.238476	-11.805556	376.286957	0.217839
6.290000	9.759790	193.879517	0.238723	-11.913740	376.621613	0.217912
6.300000	9.871168	193.473358	0.238526	-11.775415	376.367615	0.217907
6.310000	9.722972	193.871384	0.238532	-12.020848	377.020569	0.217960
6.320000	9.790166	193.633804	0.238505	-11.831391	376.986206	0.218068
6.330000	9.826065	193.308228	0.238369	-11.704369	377.060120	0.218082
6.340000	9.632765	193.583694	0.238487	-12.013313	377.714447	0.218168
6.350000	9.799831	193.099899	0.238465	-11.676381	377.315094	0.218326
6.360000	9.650714	193.145767	0.238486	-11.715672	377.900269	0.218531
6.370000	9.774057	192.634094	0.238394	-11.424489	377.668427	0.218642
6.380000	9.674646	192.832703	0.238689	-11.574655	378.209473	0.218929
6.390000	9.738159	192.109451	0.238550	-11.390580	378.079742	0.218979
6.400000	9.731716	191.755966	0.238606	-11.412647	377.714417	0.219056
6.410000	9.659919	191.851318	0.238634	-11.546129	378.525818	0.219138
6.420000	9.638748	191.575439	0.238555	-11.490152	378.460693	0.219107
6.430000	9.572474	191.791794	0.238396	-11.681225	379.324707	0.219171
6.440000	9.711005	191.508804	0.238432	-11.378201	379.201996	0.219192
6.450000	9.383316	191.909134	0.238249	-11.675843	379.990082	0.219253
6.460000	9.512643	191.643250	0.238194	-11.700062	379.890961	0.219171
6.470000	9.478126	191.410614	0.238043	-11.532673	379.718719	0.219173
6.480000	9.263655	191.602707	0.238062	-11.831391	380.048187	0.219097
6.490000	9.275161	191.085968	0.238032	-11.673151	379.465759	0.218989
6.500000	9.188636	191.244202	0.238051	-11.885214	379.567291	0.219005
6.510000	9.246165	190.772980	0.237878	-11.641934	378.820221	0.218811
6.520000	9.041821	191.198517	0.237951	-11.982096	379.410370	0.218772
6.530000	9.224995	191.105972	0.237875	-11.851305	379.024323	0.218653
6.540000	9.285286	191.139343	0.237865	-11.761959	378.977264	0.218465
6.550000	9.201523	191.758850	0.237920	-12.018158	379.253906	0.218383
6.560000	9.353861	191.738922	0.237859	-11.744198	379.133759	0.218313
6.570000	9.259513	192.124832	0.237892	-11.881446	379.250214	0.218194
6.580000	9.494233	191.740723	0.237890	-11.646240	378.464203	0.218085
6.590000	9.320264	192.307343	0.238066	-11.847000	378.987366	0.218047
6.600000	9.507120	192.053513	0.237917	-11.616099	378.384491	0.217851
6.610000	9.516325	192.135437	0.237968	-11.661310	378.043701	0.217788
6.620000	9.527831	192.419754	0.238000	-11.651084	378.040619	0.217739
6.630000	9.674187	192.268906	0.238022	-11.591340	377.595551	0.217518
6.640000	9.512183	192.709900	0.237914	-11.753348	377.731689	0.217375
6.650000	9.920874	192.351395	0.237915	-11.440097	377.131775	0.217187
6.660000	9.655777	193.214645	0.238015	-11.826547	377.679535	0.216949
6.670000	9.804434	192.949158	0.237948	-11.730203	377.117462	0.216740
6.680000	9.966437	193.067764	0.237946	-11.669383	376.831299	0.216573
6.690000	9.781422	193.292770	0.237918	-11.761959	376.894684	0.216422
6.700000	9.852298	193.131699	0.237849	-11.749580	376.280731	0.216309
6.710000	9.773137	193.461380	0.237819	-11.822779	376.716492	0.216245
6.720000	9.963215	193.198608	0.237708	-11.655928	376.021271	0.215969
6.730000	9.699960	193.836761	0.237588	-11.966487	376.974457	0.215904
6.740000	9.891878	193.753845	0.237538	-11.787257	376.361023	0.215813
6.750000	9.772677	193.681976	0.237353	-11.760344	376.381500	0.215596
6.760000	9.724813	193.784821	0.237243	-11.951955	376.533020	0.215399
6.770000	9.715608	193.621597	0.237153	-11.818474	376.310638	0.215320
6.780000	9.611594	193.781235	0.237067	-12.014928	376.525848	0.215227
6.790000	9.731716	193.060120	0.236964	-11.904591	375.918701	0.214983
6.800000	9.534735	193.647614	0.237047	-12.139797	376.685547	0.215048
6.810000	9.642430	193.116272	0.236936	-11.997705	376.295471	0.214798
6.820000	9.568792	192.965790	0.236833	-12.064983	376.501526	0.214652
6.830000	9.572934	193.107239	0.236679	-12.065522	376.793213	0.214546
6.840000	9.562348	192.738510	0.236631	-12.069827	376.875732	0.214403
6.850000	9.448670	192.819992	0.236594	-12.299652	377.371185	0.214238
6.860000	9.618037	192.209137	0.236464	-12.032151	377.022949	0.214143
6.870000	9.308298	192.670685	0.236528	-12.494492	377.806488	0.214001
6.880000	9.412312	191.881088	0.236311	-12.344863	377.445862	0.213858
6.890000	9.299553	191.756577	0.236303	-12.321719	377.619720	0.213753
6.900000	9.317502	191.765671	0.236252	-12.343249	377.723572	0.213630
6.910000	9.245245	191.495834	0.236102	-12.340557	377.735687	0.213505
6.920000	9.147675	191.652466	0.236034	-12.487495	378.163513	0.213523
6.930000	9.308298	191.145401	0.235911	-12.225376	377.832336	0.213304
6.940000	8.975086	191.791519	0.235849	-12.624744	378.765381	0.213269
6.950000	9.257671	191.439011	0.235864	-12.388998	378.152313	0.213175
6.960000	9.133868	191.466034	0.235765	-12.497721	378.526367	0.212972
6.970000	9.144914	191.494278	0.235721	-12.553697	378.408691	0.212936
6.980000	9.132487	191.483643	0.235896	-12.507948	378.313782	0.212824
6.990000	9.016968	191.600464	0.235866	-12.633893	378.597626	0.212779
7.000000	9.311979	191.151215	0.235828	-12.400301	377.791016	0.212601
7.010000	9.025251	191.641083	0.235902	-12.744231	378.579926	0.212693
7.020000	9.214409	191.228012	0.235854	-12.467580	378.091278	0.212585
7.030000	9.171607	191.360886	0.235904	-12.540241	378.306213	0.212605
7.040000	9.264115	191.393204	0.235962	-12.434748	378.377533	0.212675
7.050000	9.217171	191.406708	0.235911	-12.400301	378.436676	0.212685
7.060000	9.308758	191.462570	0.236013	-12.499873	378.650574	0.212778
7.070000	9.515405	191.031326	0.236109	-12.102121	377.996704	0.212831
7.080000	9.337753	191.495682	0.236195	-12.398149	378.747375	0.212946
7.090000	9.507120	191.136734	0.236034	-12.154330	377.832031	0.213037
7.100000	9.494233	191.245010	0.236168	-12.124189	377.925842	0.213175
7.110000	9.638288	191.129120	0.236136	-11.978866	377.820038	0.213218
7.120000	9.459255	191.240631	0.236168	-12.038072	377.891296	0.213256
7.130000	9.560508	191.405182	0.236219	-11.964334	377.902954	0.213363
7.140000	9.694897	190.968430	0.236139	-11.705984	377.520264	0.213292
7.150000	9.395742	191.546661	0.236169	-12.101583	378.356262	0.213434
7.160000	9.677868	191.097412	0.236152	-11.804480	377.885284	0.213417
7.170000	9.620799	191.201355	0.236285	-11.876603	378.183563	0.213436
7.180000	9.598248	190.907043	0.236088	-11.751733	378.111176	0.213448
7.190000	9.652095	190.900848	0.236286	-11.872835	378.389282	0.213421
7.200000	9.636907	190.792679	0.236268	-11.852382	378.628723	0.213571
7.210000	9.676027	190.248810	0.236136	-11.685531	378.375397	0.213517
7.220000	9.539337	190.574890	0.236306	-12.018695	379.279144	0.213749
7.230000	9.687533	189.952423	0.236067	-11.735586	378.871490	0.213748
7.240000	9.519547	189.964188	0.235943	-11.812553	379.002747	0.213904
7.250000	9.554524	189.773209	0.235904	-11.610716	378.821503	0.214025
7.260000	9.482728	189.895233	0.235777	-11.729127	379.132751	0.214080
7.270000	9.369969	190.128326	0.235644	-11.821703	379.101440	0.214126
7.280000	9.544399	190.150833	0.235459	-11.529982	378.707764	0.214166
7.290000	9.262734	190.925919	0.235474	-11.890058	379.415497	0.214177
7.300000	9.343276	190.763641	0.235109	-11.647317	379.023987	0.214065
7.310000	9.236501	191.054382	0.235131	-11.849152	379.383728	0.214042
7.320000	9.268717	190.958099	0.234965	-11.587573	378.777679	0.213961
7.330000	9.140311	191.025665	0.234775	-11.867453	378.998962	0.213946
7.340000	9.139391	191.067978	0.234804	-11.762497	378.433136	0.213959
7.350000	9.316582	190.743805	0.234759	-11.660772	377.973663	0.213767
7.360000	8.952994	191.263824	0.234684	-11.964873	378.410004	0.213808
7.370000	9.242023	191.091400	0.234628	-11.753886	377.992889	0.213571
7.380000	9.167925	191.565018	0.234582	-11.904591	378.273224	0.213558
7.390000	9.219472	191.524521	0.234391	-11.899208	377.926147	0.213391
7.400000	9.115458	192.190140	0.234415	-11.926658	378.372314	0.213441
7.410000	9.158721	192.228714	0.234346	-11.915355	378.063873	0.213282
7.420000	9.176670	192.192184	0.234055	-11.802865	377.606049	0.213110
7.430000	9.068514	192.928772	0.234267	-12.061754	377.947693	0.213188
7.440000	9.177130	192.893448	0.233964	-11.740430	377.333679	0.213122
7.450000	9.032155	193.196609	0.233989	-11.890596	377.327118	0.213116
7.460000	9.304155	193.098282	0.233970	-11.677458	376.806305	0.213018
7.470000	9.182193	193.735474	0.234051	-11.798560	376.877136	0.213011
7.480000	9.184954	193.601181	0.233915	-11.744736	376.617523	0.213049
7.490000	9.414613	193.523117	0.233944	-11.522447	376.094513	0.212968
7.500000	9.203363	193.966949	0.234051	-11.843232	376.577484	0.212973
7.510000	9.334991	193.721603	0.233826	-11.651084	376.131165	0.212883
7.520000	9.287587	194.065552	0.233991	-11.754424	376.317810	0.212908
7.530000	9.363986	193.710632	0.233858	-11.623634	375.867249	0.212782
7.540000	9.241563	194.171280	0.233876	-11.806095	376.507568	0.212821
7.550000	9.308298	194.099915	0.233820	-11.681763	376.339996	0.212767
7.560000	9.489631	193.980255	0.233768	-11.587573	376.164215	0.212678
7.570000	9.196000	194.384766	0.233772	-11.883061	376.604065	0.212652
7.580000	9.436244	193.995544	0.233669	-11.654313	376.128235	0.212618
7.590000	9.272860	194.118515	0.233721	-11.799097	376.482971	0.212561
7.600000	9.417834	193.704590	0.233575	-11.701677	375.796051	0.212435
7.610000	9.169766	194.015106	0.233616	-11.884676	376.257263	0.212439
7.620000	9.304155	193.771713	0.233529	-11.847000	376.024017	0.212315
7.630000	9.333151	193.554260	0.233307	-11.794253	375.887512	0.212230
7.640000	9.134789	193.877853	0.233426	-12.068750	376.528046	0.212129
7.650000	9.351100	193.837097	0.233331	-11.856150	376.376221	0.212001
7.660000	9.158260	194.066818	0.233283	-12.118269	376.901764	0.211928
7.670000	9.283444	193.780060	0.233190	-11.816859	376.783020	0.211788
7.680000	9.130646	194.290085	0.233313	-12.169400	377.634247	0.211749
7.690000	9.131567	193.910721	0.233109	-12.051527	377.326996	0.211621
7.700000	9.292649	193.621872	0.233111	-11.983172	377.144379	0.211631
7.710000	9.074037	193.629379	0.233282	-12.200079	377.419373	0.211566
7.720000	9.204744	193.156296	0.233025	-12.049374	377.044189	0.211534
7.730000	9.033997	193.272781	0.233249	-12.128494	377.409607	0.211654
7.740000	9.282064	192.937347	0.233058	-11.896517	376.828003	0.211635
7.750000	9.006843	193.236847	0.233237	-12.265205	377.552948	0.211706
7.760000	9.173908	192.987762	0.233126	-11.965411	377.455200	0.211902
7.770000	9.172988	192.884323	0.233067	-11.866915	377.436676	0.212065
7.780000	9.015126	193.103027	0.232925	-12.006855	377.935822	0.212318
7.790000	9.144914	192.780334	0.232975	-11.867453	378.016022	0.212629
7.800000	9.029854	192.950882	0.232979	-11.805018	378.493378	0.213029
7.810000	9.144914	192.234543	0.232884	-11.449785	378.327515	0.213337
7.820000	8.950233	192.638733	0.233006	-11.538594	379.211090	0.213802
7.830000	9.068514	192.035706	0.232990	-11.267326	378.898285	0.214064
7.840000	8.999939	191.771698	0.232900	-11.247949	378.798737	0.214331
7.850000	8.952074	191.796433	0.232985	-11.272707	379.086639	0.214566
7.860000	9.045503	191.293167	0.233032	-11.054186	379.000793	0.214770
7.870000	8.865089	191.359177	0.232943	-11.225343	379.559296	0.214864
7.880000	9.173908	190.797211	0.233007	-10.838894	379.183350	0.214948
7.890000	8.840237	191.294647	0.233156	-11.190358	379.956421	0.215180
7.900000	8.975546	190.732620	0.232974	-10.918552	379.786804	0.215249
7.910000	9.091986	190.723663	0.232969	-10.776997	379.843262	0.215480
7.920000	8.970023	190.848785	0.233034	-10.759773	380.000427	0.215592
7.930000	9.011445	190.850876	0.232981	-10.703798	379.782623	0.215630
7.940000	8.989814	191.021515	0.232954	-10.823285	380.302917	0.215690
7.950000	9.096128	190.612671	0.232847	-10.497655	379.827423	0.215622
7.960000	8.819526	191.186157	0.232814	-10.936314	380.577728	0.215576
7.970000	8.982910	190.963394	0.232747	-10.764079	380.058777	0.215422
7.980000	8.964500	191.146667	0.232710	-10.810367	380.113495	0.215257
7.990000	8.929062	191.085587	0.232597	-11.087018	380.028351	0.214977
8.000000	8.965881	190.988770	0.232724	-11.034271	379.733887	0.214784
8.010000	8.960359	191.262314	0.232688	-11.197894	380.104706	0.214602
8.020000	9.068514	190.982101	0.232544	-11.033195	379.416565	0.214270
8.030000	8.902369	191.651169	0.232686	-11.455706	380.050659	0.214160
8.040000	9.020189	191.548294	0.232638	-11.224805	379.523071	0.213919
8.050000	8.983830	191.650803	0.232527	-11.300695	379.508362	0.213651
8.060000	9.031695	191.913437	0.232578	-11.348060	379.289764	0.213522
8.070000	9.093827	191.823837	0.232594	-11.357748	378.593018	0.213309
8.080000	9.054707	192.295074	0.232421	-11.485847	378.392273	0.213118
8.090000	9.222693	192.361771	0.232460	-11.310922	377.814331	0.212842
8.100000	9.133868	193.613358	0.232329	-11.601566	378.569305	0.212644
8.110000	9.244325	193.744308	0.232225	-11.571964	378.036377	0.212282
8.120000	9.279303	194.195190	0.232197	-11.638705	377.924164	0.211954
8.130000	9.211187	194.216660	0.232182	-11.788870	377.715881	0.211587
8.140000	9.161022	194.089661	0.232130	-11.884676	377.154846	0.211163
8.150000	9.068514	193.811081	0.232105	-12.132262	377.224121	0.210824
8.160000	9.207966	192.970642	0.232103	-12.007393	376.416504	0.210379
8.170000	8.941029	193.400574	0.232123	-12.499335	376.925232	0.210060
8.180000	9.135248	192.783905	0.232161	-12.332484	376.376221	0.209645
8.190000	9.149516	193.059174	0.232219	-12.420754	376.926178	0.209300
8.200000	9.103032	193.071487	0.232117	-12.585991	377.053619	0.208961
8.210000	9.222693	193.012146	0.232252	-12.551544	377.592438	0.208721
8.220000	9.201982	193.248093	0.232334	-12.669954	377.944122	0.208539
8.230000	9.331309	192.702194	0.231991	-12.450895	377.910583	0.208287
8.240000	9.024331	193.294205	0.232191	-12.842727	378.651031	0.208424
8.250000	9.258592	192.598175	0.232282	-12.585991	378.267151	0.208370
8.260000	9.161482	192.327667	0.232234	-12.775448	378.426300	0.208403
8.270000	9.139851	191.753204	0.232309	-12.678566	378.351593	0.208581
8.280000	9.172988	191.333878	0.232497	-12.610211	378.509949	0.208662
8.290000	9.039979	191.072540	0.232455	-12.645196	378.566406	0.208717
8.300000	9.211187	190.417725	0.232467	-12.365855	378.272400	0.208796
8.310000	8.993956	190.770630	0.232537	-12.683411	379.221375	0.208900
8.320000	9.045503	190.221878	0.232474	-12.519788	378.890625	0.208827
8.330000	8.979228	190.405243	0.232527	-12.654346	379.552002	0.208895
8.340000	9.026632	190.057098	0.232640	-12.526247	379.510742	0.208842
8.350000	8.975546	189.889664	0.232654	-12.767375	379.827972	0.208810
8.360000	8.990273	189.734680	0.232797	-12.687717	380.041840	0.208873
8.370000	9.129725	189.224609	0.232783	-12.474577	379.734467	0.208942
8.380000	8.881198	189.515167	0.232944	-12.743692	380.524872	0.209072
8.390000	9.045962	188.969238	0.233063	-12.503641	380.212402	0.209173
8.400000	9.058849	189.045090	0.233126	-12.550467	380.662079	0.209403
8.410000	9.056087	188.707626	0.233187	-12.443898	380.572632	0.209544
8.420000	9.006843	188.509781	0.233207	-12.398149	380.815796	0.209717
8.430000	9.035837	188.227737	0.233513	-12.359933	380.959717	0.209910
8.440000	9.107174	187.606720	0.233341	-12.225376	380.576294	0.209895
8.450000	8.875215	188.071136	0.233618	-12.521403	381.262329	0.210071
8.460000	9.083702	187.522018	0.233582	-12.337867	380.974487	0.210035
8.470000	8.921699	187.648880	0.233823	-12.640890	381.401276	0.210108
8.480000	9.110856	187.580139	0.233818	-12.373928	381.246796	0.210211
8.490000	9.083702	187.839005	0.234008	-12.486957	381.731079	0.210337
8.500000	9.109475	187.538559	0.234044	-12.478882	381.734314	0.210477
8.510000	9.282064	187.195709	0.234186	-12.254979	381.621307	0.210659
8.520000	9.056548	187.787598	0.234467	-12.529476	382.542206	0.211002
8.530000	9.268717	187.162827	0.234474	-12.278123	382.331787	0.211182
8.540000	9.089685	187.309891	0.234619	-12.296961	382.760101	0.211597
8.550000	9.259513	186.808807	0.234835	-12.068750	382.492981	0.211859
8.560000	9.181273	187.045059	0.234797	-12.159173	382.539642	0.212132
8.570000	9.170226	186.769791	0.234969	-12.093510	382.357056	0.212431
8.580000	9.366287	186.521713	0.235006	-11.904591	381.923798	0.212562
8.590000	9.071735	187.097244	0.235261	-12.155945	382.290436	0.212886
8.600000	9.309218	186.781723	0.235182	-11.933655	381.849518	0.212973
8.610000	9.211187	187.240631	0.235433	-11.999319	382.073303	0.213154
8.620000	9.307837	187.186996	0.235408	-11.902976	381.552612	0.213181
8.630000	9.284825	187.618652	0.235501	-12.024616	382.127167	0.213357
8.640000	9.335452	187.508514	0.235574	-11.865300	382.052979	0.213551
8.650000	9.447749	187.722565	0.235379	-11.742583	381.605713	0.213678
8.660000	9.256751	188.297989	0.235851	-11.989631	382.009583	0.213818
8.670000	9.479506	187.830597	0.235760	-11.668308	381.650635	0.213962
8.680000	9.306917	188.249298	0.235764	-11.830314	381.718140	0.214129
8.690000	9.445448	187.778656	0.235868	-11.618789	381.179779	0.214167
8.700000	9.400805	188.126389	0.235988	-11.731280	381.413635	0.214313
8.710000	9.348799	188.007706	0.236044	-11.643010	381.104034	0.214293
8.720000	9.554524	188.159409	0.236085	-11.544514	380.610382	0.214325
8.730000	9.372271	188.578369	0.236248	-11.690374	380.979767	0.214478
8.740000	9.529212	188.544952	0.236155	-11.547744	380.337128	0.214403
8.750000	9.375953	189.110748	0.236230	-11.697910	380.565338	0.214464
8.760000	9.577537	189.089798	0.236093	-11.458398	379.919678	0.214461
8.770000	9.396203	189.824951	0.236082	-11.781335	380.304565	0.214487
8.780000	9.446829	189.999176	0.236137	-11.650007	379.778534	0.214446
8.790000	9.470761	190.013351	0.236024	-11.565505	379.363739	0.214473
8.800000	9.271479	190.459824	0.236089	-11.791024	379.717865	0.214451
8.810000	9.306917	190.452728	0.235803	-11.690374	379.272949	0.214438
8.820000	9.213489	190.914917	0.235978	-11.860994	379.338257	0.214505
8.830000	9.367668	190.695724	0.235892	-11.683916	378.641357	0.214372
8.840000	9.122362	191.410721	0.235960	-11.946573	379.335541	0.214506
8.850000	9.253069	191.449997	0.235916	-11.741506	378.862793	0.214608
8.860000	9.266876	191.361008	0.235796	-11.636014	378.591980	0.214598
8.870000	9.105333	191.893494	0.235884	-11.787257	378.798462	0.214750
8.880000	9.286667	191.645676	0.236023	-11.603181	378.254944	0.214782
8.890000	9.095208	191.898010	0.236038	-11.799635	378.337128	0.214819
8.900000	9.256290	191.498520	0.235968	-11.546129	377.460907	0.214805
8.910000	9.017427	192.147690	0.236083	-11.953570	377.910828	0.215013
8.920000	9.105793	192.226227	0.235977	-11.807709	377.628998	0.214966
8.930000	9.181273	192.412521	0.235804	-11.734510	377.781006	0.215036
8.940000	9.029854	192.949036	0.235929	-11.897056	378.407043	0.215279
8.950000	9.032616	192.941269	0.235754	-11.664001	378.255371	0.215437
8.960000	8.833333	193.411728	0.235780	-11.832467	378.542419	0.215830
8.970000	9.145834	192.829193	0.235814	-11.458398	377.929108	0.216055
8.980000	8.765218	193.271622	0.235948	-11.813091	378.383911	0.216253
8.990000	8.852663	192.785980	0.235830	-11.527829	377.794403	0.216568
9.000000	8.947011	192.529373	0.236120	-11.434715	377.569946	0.216814
9.010000	8.760155	192.606522	0.236077	-11.536979	377.689758	0.217007
9.020000	8.885799	192.302414	0.236239	-11.400268	377.439819	0.217262
9.030000	8.841617	192.783600	0.236398	-11.473468	377.718109	0.217559
9.040000	8.970023	192.387604	0.236255	-11.112853	377.286285	0.217778
9.050000	8.798815	193.149445	0.236534	-11.306616	378.252411	0.218149
9.060000	9.017427	193.004211	0.236471	-11.035886	377.966217	0.218368
9.070000	8.986132	193.050385	0.236564	-11.001977	378.049286	0.218607
9.080000	8.955756	193.273392	0.236619	-10.986369	378.088531	0.218862
9.090000	9.012365	192.975998	0.236778	-10.756006	377.919861	0.219151
9.100000	8.958057	193.255676	0.236754	-10.912631	378.133270	0.219370
9.110000	9.099350	192.708817	0.236760	-10.517570	377.538849	0.219533
9.120000	8.881198	193.318268	0.237010	-10.714024	378.211243	0.219828
9.130000	8.994416	192.959900	0.236820	-10.525643	377.705444	0.219831
9.140000	8.957597	193.111496	0.236823	-10.529410	377.814941	0.219926
9.150000	8.947011	193.232483	0.236911	-10.675271	378.042358	0.219943
9.160000	8.980609	193.176209	0.236957	-10.654280	377.841125	0.219935
9.170000	8.848520	193.346344	0.237040	-10.817365	378.050446	0.219954
9.180000	9.165164	192.976776	0.237047	-10.563319	377.433289	0.219821
9.190000	8.783628	193.653290	0.237114	-10.970221	378.068176	0.219777
9.200000	8.981990	193.308823	0.237010	-10.742012	377.586731	0.219561
9.210000	9.057929	193.450546	0.237215	-10.799065	377.486023	0.219570
9.220000	8.958057	193.495255	0.237165	-10.835664	377.550995	0.219326
9.230000	9.092446	193.676895	0.237214	-10.927164	377.414215	0.219238
9.240000	8.966341	193.967239	0.237360	-11.020277	377.602478	0.219117
9.250000	9.201523	193.558075	0.237225	-10.821132	376.855560	0.218899
9.260000	8.912494	194.248825	0.237268	-11.222114	377.489502	0.218814
9.270000	9.145373	194.023331	0.237395	-10.983139	376.750031	0.218657
9.280000	9.101651	194.148026	0.237173	-11.075715	376.705566	0.218564
9.290000	9.052405	194.268127	0.237212	-11.017586	376.355621	0.218442
9.300000	9.137549	194.484222	0.237323	-10.985292	376.071014	0.218418
9.310000	9.075878	194.767288	0.237319	-11.135459	375.927094	0.218241
9.320000	9.226835	194.351807	0.237175	-10.824900	375.377380	0.218120
9.330000	9.078179	195.162277	0.237331	-11.101012	375.995209	0.218084
9.340000	9.198761	194.778656	0.237113	-10.955151	375.471619	0.217844
9.350000	9.191398	195.193954	0.237282	-10.998210	375.772705	0.217677
9.360000	9.225455	195.028656	0.237095	-11.083789	375.659698	0.217546
9.370000	9.124663	195.380280	0.236913	-11.204352	375.782379	0.217321
9.380000	9.136629	195.509384	0.236973	-11.289931	376.064758	0.217235
9.390000	9.321645	195.178909	0.237005	-11.195202	375.632751	0.217021
9.400000	8.974626	195.561371	0.236970	-11.531596	376.404938	0.216992
9.410000	9.151357	194.943176	0.236905	-11.329760	375.836060	0.216932
9.420000	9.059309	194.904373	0.236945	-11.399191	376.190796	0.216911
9.430000	9.080020	194.566971	0.236912	-11.362592	375.753510	0.216750
9.440000	9.021570	194.645584	0.236914	-11.442788	375.877808	0.216676
9.450000	8.983370	194.537476	0.236820	-11.478312	375.857025	0.216623
9.460000	9.136629	194.102554	0.236863	-11.382507	375.629852	0.216479
9.470000	8.831491	194.561447	0.236817	-11.727513	376.415802	0.216474
9.480000	9.031695	194.253754	0.236709	-11.519217	376.258148	0.216367
9.490000	8.915715	194.455322	0.236743	-11.659695	376.559937	0.216255
9.500000	8.966802	193.950562	0.236653	-11.538594	376.715118	0.216209
9.510000	8.918937	194.024734	0.236667	-11.724283	377.298340	0.216302
9.520000	8.866010	193.731262	0.236710	-11.609640	377.473969	0.216322
9.530000	9.017427	193.079651	0.236663	-11.469161	377.488159	0.216412
9.540000	8.802497	193.177063	0.236982	-11.658081	378.143951	0.216658
9.550000	8.965421	192.413345	0.236896	-11.451938	377.848419	0.216811
9.560000	8.915255	192.189667	0.236979	-11.428257	378.266937	0.216999
9.570000	9.023411	191.601273	0.236958	-11.228573	378.115723	0.217201
9.580000	8.936426	191.743057	0.237077	-11.322763	378.571930	0.217321
9.590000	8.845759	191.502136	0.236975	-11.323839	378.576294	0.217406
9.600000	9.097049	191.149673	0.237051	-11.124694	378.396118	0.217453
9.610000	8.804338	191.605835	0.237080	-11.430409	379.081787	0.217526
9.620000	8.994876	191.140579	0.236909	-11.229649	378.911987	0.217567
9.630000	8.974165	191.231522	0.237153	-11.313075	379.570038	0.217647
9.640000	9.026632	190.888062	0.236953	-11.119311	379.258484	0.217634
9.650000	8.866470	190.948364	0.237087	-11.354519	380.019684	0.217777
9.660000	9.032155	190.767822	0.237088	-11.217270	379.834229	0.217840
9.670000	9.149976	190.118500	0.237121	-11.026198	379.659210	0.217805
9.680000	8.929982	190.371048	0.237216	-11.198969	380.234283	0.217896
9.690000	9.201982	190.020309	0.237188	-10.996595	379.825439	0.217833
9.700000	9.045962	189.970642	0.237251	-11.122541	380.000549	0.217792
9.710000	9.252149	189.500626	0.237171	-10.957305	379.494904	0.217656
9.720000	9.029394	189.754944	0.237417	-11.161294	379.919067	0.217653
9.730000	9.132487	189.430298	0.237290	-11.053648	379.664429	0.217472
9.740000	9.237421	189.188232	0.237191	-10.980986	379.437256	0.217294
9.750000	9.132947	189.611099	0.237307	-11.200584	379.897522	0.217223
9.760000	9.220853	189.503937	0.237044	-11.091862	379.860138	0.217023
9.770000	9.133868	189.881104	0.237003	-11.201661	380.276306	0.216842
9.780000	9.352481	189.808640	0.236892	-11.004669	379.917969	0.216702
9.790000	9.095208	190.299561	0.236845	-11.279167	380.769135	0.216538
9.800000	9.191857	190.178177	0.236637	-11.189281	380.381958	0.216346
9.810000	9.238802	189.892197	0.236615	-10.994981	380.259918	0.216161
9.820000	9.001320	189.974762	0.236557	-11.279167	380.360168	0.216022
9.830000	9.207966	189.548126	0.236390	-11.237723	379.675507	0.215828
9.840000	9.002240	189.545502	0.236498	-11.342139	379.765900	0.215726
9.850000	9.131567	189.012207	0.236216	-11.092938	379.296478	0.215542
9.860000	8.894084	189.569687	0.236259	-11.413186	379.929962	0.215445
9.870000	9.021570	189.360931	0.236023	-11.238261	379.820740	0.215385
9.880000	9.047803	189.523071	0.235973	-11.248488	379.952911	0.215192
9.890000	8.879356	189.901581	0.235927	-11.449247	380.555878	0.215057
9.900000	9.019269	189.872849	0.235734	-11.253331	380.316315	0.214944
9.910000	8.869231	190.344147	0.235641	-11.466471	380.546967	0.214837
9.920000	8.923539	189.898346	0.235357	-11.228573	379.884430	0.214738
9.930000	8.774423	190.618439	0.235410	-11.488000	380.186829	0.214747
9.940000	8.887180	190.165726	0.235302	-11.416954	379.518707	0.214606
9.950000	8.859567	190.161652	0.235225	-11.357748	379.273499	0.214519
9.960000	8.890402	190.377136	0.235125	-11.523523	379.309082	0.214386
9.970000	8.895926	190.050385	0.235053	-11.450862	378.908051	0.214248
9.980000	8.903289	190.430344	0.234939	-11.712442	379.118164	0.214159
9.990000	9.030314	190.043640	0.234782	-11.437407	378.664581	0.213977
10.000000	8.726558	190.629334	0.234632	-11.823318	379.557404	0.213866
10.010000	8.858645	190.375153	0.234577	-11.783489	379.253174	0.213618
10.020000	8.819065	190.397903	0.234469	-11.700601	379.462799	0.213513
10.030000	8.818145	190.502457	0.234447	-11.828701	379.708374	0.213410
10.040000	8.816304	190.566025	0.234250	-11.782412	379.594299	0.213272
10.050000	8.790991	190.883118	0.234342	-11.849152	380.008911	0.213243
10.060000	9.006843	190.387726	0.234174	-11.580575	379.531677	0.213032
10.070000	8.720574	190.991379	0.234176	-12.026769	380.271027	0.213013
10.080000	8.949312	190.617203	0.234111	-11.733433	379.674469	0.212908
10.090000	8.849442	190.666718	0.234011	-11.774339	379.556702	0.212801
10.100000	8.794673	190.550064	0.234048	-11.843232	379.439392	0.212733
10.110000	8.841157	190.390472	0.233929	-11.825471	379.183929	0.212691
10.120000	8.763837	190.660904	0.233955	-11.909972	379.246490	0.212592
10.130000	8.901908	190.171036	0.233717	-11.647855	378.580688	0.212425
10.140000	8.687898	190.950806	0.233820	-11.965411	379.268158	0.212480
10.150000	8.839316	190.420654	0.233699	-11.779182	379.012970	0.212212
10.160000	8.811702	190.827789	0.233591	-11.818474	379.168671	0.212230
10.170000	8.885340	190.838684	0.233767	-11.829776	379.265350	0.212041
10.180000	8.822747	190.931320	0.233501	-11.721592	379.372803	0.212006
10.190000	8.825048	191.158615	0.233632	-11.941190	379.413422	0.211840
10.200000	9.070815	190.581039	0.233488	-11.684992	379.043121	0.211700
10.210000	8.682375	191.115936	0.233576	-12.030536	379.728607	0.211721
10.220000	8.938267	190.569489	0.233484	-11.836774	379.106995	0.211506
10.230000	8.909732	190.953201	0.233679	-11.907282	379.324127	0.211498
10.240000	8.887641	190.753693	0.233488	-11.880908	379.277557	0.211304
10.250000	8.872453	190.947891	0.233268	-11.920199	379.238373	0.211233
10.260000	8.951613	191.053925	0.233548	-12.047222	379.343872	0.211047
10.270000	9.037218	190.717209	0.233246	-11.793177	378.774597	0.210996
10.280000	8.770280	191.136414	0.233373	-12.314184	379.440094	0.210832
10.290000	8.953915	190.787811	0.233260	-11.936885	378.947510	0.210753
10.300000	8.951613	191.160324	0.233327	-12.131185	378.927429	0.210663
10.310000	8.869231	190.850357	0.233049	-12.016543	378.724030	0.210469
10.320000	8.886721	191.011017	0.233080	-12.129571	378.874146	0.210421
10.330000	8.862788	191.062668	0.233197	-12.165633	378.853790	0.210265
10.340000	8.952535	190.875839	0.232690	-11.968102	378.601593	0.210345
10.350000	8.802036	191.585663	0.233044	-12.256594	379.342011	0.210369
10.360000	8.900067	191.344833	0.232861	-11.996090	378.915100	0.210320
10.370000	8.781326	191.561676	0.232767	-12.129032	379.194458	0.210414
10.380000	8.922619	191.492325	0.232721	-11.948725	378.945526	0.210449
10.390000	8.851743	191.798538	0.232695	-12.007393	379.068359	0.210679
10.400000	8.836094	191.636780	0.232801	-11.999319	378.972412	0.210761
10.410000	9.011905	191.357376	0.232752	-11.762497	378.561737	0.210946
10.420000	8.709068	191.952957	0.232668	-11.997167	379.133087	0.211225
10.430000	8.861868	191.611267	0.232473	-11.784565	378.476715	0.211272
10.440000	8.786388	191.863251	0.232588	-11.893288	378.876221	0.211445
10.450000	8.839776	191.704575	0.232235	-11.624172	378.502625	0.211587
10.460000	8.562253	191.873352	0.232301	-11.936885	378.971558	0.211667
10.470000	8.751871	191.799301	0.232362	-11.876065	379.042999	0.211713
10.480000	8.740825	191.460541	0.232116	-11.717825	379.028992	0.211640
10.490000	8.535099	191.965683	0.232299	-12.154330	379.963257	0.211735
10.500000	8.631289	191.491089	0.232143	-11.774339	379.635315	0.211760
10.510000	8.579742	191.572342	0.232174	-11.991245	379.967102	0.211789
10.520000	8.645096	191.005463	0.232145	-11.887906	379.654877	0.211673
10.530000	8.453176	191.147049	0.232245	-12.009007	380.191315	0.211785
10.540000	8.547986	190.861267	0.232167	-11.962181	380.105286	0.211643
10.550000	8.628067	190.591293	0.232000	-11.894903	379.777161	0.211672
10.560000	8.429705	190.880127	0.232274	-12.147333	380.494110	0.211656
10.570000	8.556270	190.307144	0.232174	-11.844309	379.963806	0.211649
10.580000	8.373096	190.603683	0.232221	-12.085975	380.240540	0.211709
10.590000	8.562714	190.515686	0.232225	-11.890058	380.123932	0.211669
10.600000	8.409915	191.279800	0.232296	-12.041839	380.907623	0.211697
10.610000	8.517610	191.344192	0.232095	-11.937423	380.636353	0.211722
10.620000	8.614260	191.213028	0.232223	-11.723745	380.597229	0.211670
10.630000	8.449035	191.580414	0.232271	-12.003625	380.869385	0.211773
10.640000	8.542923	190.676407	0.232280	-11.794253	380.310394	0.211668
10.650000	8.431086	190.508041	0.232596	-12.056372	380.611267	0.211798
10.660000	8.657522	189.713379	0.232639	-11.860994	380.105164	0.211790
10.670000	8.387823	189.718597	0.232842	-12.124189	380.768707	0.211986
10.680000	8.660744	189.403198	0.232974	-11.933655	380.771118	0.212197
10.690000	8.728398	189.212784	0.233035	-11.652160	380.970673	0.212275
10.700000	8.641874	189.550873	0.233134	-11.915894	381.878021	0.212506
10.710000	8.849901	189.373428	0.233311	-11.625249	381.969177	0.212601
10.720000	8.744047	189.616180	0.233479	-11.711365	382.590942	0.212769
10.730000	8.904209	189.264999	0.233355	-11.532135	382.139862	0.212806
10.740000	8.755093	189.782104	0.233603	-11.693066	382.708832	0.213034
10.750000	8.896385	189.320541	0.233589	-11.499841	382.273041	0.213053
10.760000	8.906051	189.102127	0.233665	-11.564429	381.834778	0.213075
10.770000	8.839776	189.253372	0.233831	-11.568735	382.132294	0.213242
10.780000	8.953455	188.962296	0.233796	-11.545052	381.689850	0.213226
10.790000	8.797434	189.115326	0.233871	-11.662387	382.076874	0.213325
10.800000	9.023871	188.831223	0.233817	-11.418569	381.499390	0.213326
10.810000	8.770741	189.341293	0.233990	-11.702754	382.439423	0.213429
10.820000	8.863708	188.804703	0.233877	-11.588111	382.427490	0.213590
10.830000	8.880277	188.656021	0.234067	-11.495535	382.464874	0.213731
10.840000	8.842998	188.615982	0.234191	-11.679610	383.054840	0.213843
10.850000	8.832872	188.223679	0.234206	-11.447633	382.999756	0.213925
10.860000	8.786388	188.243546	0.234355	-11.635475	383.331024	0.214127
10.870000	8.977387	187.593658	0.234271	-11.394348	382.799927	0.214161
10.880000	8.651079	187.877838	0.234497	-11.732357	383.676117	0.214257
10.890000	8.871532	187.622940	0.234356	-11.479926	383.346832	0.214318
10.900000	8.892243	187.646286	0.234477	-11.484771	383.494019	0.214409
10.910000	8.793292	187.508865	0.234612	-11.610716	383.911041	0.214396
10.920000	8.848061	187.239746	0.234450	-11.430409	383.876160	0.214549
10.930000	8.641874	187.200775	0.234841	-11.661848	384.190887	0.214624
10.940000	8.895004	186.440521	0.234660	-11.435253	383.800079	0.214597
10.950000	8.558111	186.993118	0.235021	-11.717287	384.478027	0.214758
10.960000	8.823208	186.415848	0.235029	-11.578423	384.105011	0.214697
10.970000	8.722876	186.445908	0.234984	-11.655390	384.211517	0.214722
10.980000	8.806179	186.336807	0.235187	-11.681763	384.406281	0.214798
10.990000	8.862788	186.342773	0.235346	-11.636014	384.204864	0.214787
11.000000	8.733922	186.486649	0.235343	-11.803403	384.511414	0.214752
11.010000	8.981529	185.960205	0.235364	-11.489077	384.101257	0.214790
11.020000	8.708609	186.486603	0.235729	-11.841079	384.885437	0.214852
11.030000	8.865549	186.153076	0.235417	-11.620943	384.375214	0.214816
11.040000	8.898227	186.228912	0.235725	-11.652160	384.406403	0.214798
11.050000	8.868772	186.376099	0.235726	-11.690913	384.337433	0.214823
11.060000	8.859106	186.224472	0.235723	-11.698449	384.288177	0.214775
11.070000	8.817225	186.574081	0.235882	-11.834082	384.395233	0.214851
11.080000	9.064832	185.998947	0.235904	-11.613946	383.952148	0.214699
11.090000	8.733001	186.589630	0.236117	-11.977252	384.678864	0.214700
11.100000	8.905590	186.283081	0.236023	-11.713519	384.172180	0.214730
11.110000	8.886260	186.380371	0.236203	-11.730203	384.274078	0.214704
11.120000	8.909272	186.399887	0.236160	-11.891673	384.037079	0.214569
11.130000	8.957597	186.502899	0.236393	-11.885753	384.105682	0.214585
11.140000	8.838395	186.577957	0.236351	-11.884138	384.350861	0.214526
11.150000	9.065292	186.344513	0.236345	-11.798021	383.541840	0.214459
11.160000	8.809401	187.033508	0.236653	-12.194159	384.077759	0.214435
11.170000	9.068514	186.645615	0.236587	-11.908896	383.533356	0.214348
11.180000	8.972324	187.049225	0.236593	-12.004163	383.421997	0.214316
11.190000	9.053786	187.056335	0.236760	-11.969716	383.144745	0.214146
11.200000	9.010984	187.194824	0.236850	-12.047760	383.160706	0.214100
11.210000	8.993035	187.354858	0.236808	-12.229682	383.139923	0.214010
11.220000	9.132487	187.123932	0.236864	-12.020848	382.520691	0.213780
11.230000	8.985211	187.805573	0.237101	-12.365316	383.082336	0.213717
11.240000	9.087384	187.480927	0.236992	-12.252826	382.227020	0.213419
11.250000	9.048264	187.683548	0.237170	-12.460583	382.290802	0.213296
11.260000	9.183113	187.766586	0.237207	-12.386846	381.997070	0.213227
11.270000	9.011905	188.048218	0.237160	-12.575226	381.978546	0.213118
11.280000	9.040440	188.236221	0.237349	-12.569305	382.319214	0.213107
11.290000	9.188636	187.935883	0.237431	-12.407837	381.734375	0.213130
11.300000	8.898227	188.646255	0.237293	-12.724316	382.486542	0.213319
11.310000	9.119141	188.351532	0.237413	-12.380386	381.971039	0.213433
11.320000	9.071276	188.780655	0.237597	-12.444974	382.140198	0.213607
11.330000	9.170687	188.556778	0.237583	-12.379310	381.808533	0.213768
11.340000	9.082782	188.874802	0.237842	-12.377158	381.924561	0.214030
11.350000	9.146295	188.969147	0.237806	-12.363701	381.667786	0.214228
11.360000	9.290809	188.715530	0.237759	-12.185547	381.223175	0.214428
11.370000	9.095668	189.178024	0.238153	-12.352398	381.767303	0.214854
11.380000	9.270558	188.743713	0.238123	-12.167248	381.212280	0.215338
11.390000	9.155039	188.813263	0.238213	-12.108581	381.480927	0.215884
11.400000	9.416914	188.600266	0.238274	-11.779721	381.121826	0.216405
11.410000	9.238802	189.015793	0.238524	-11.684454	381.483978	0.216906
11.420000	9.297252	189.033951	0.238379	-11.630092	381.335999	0.217227
11.430000	9.440386	188.981140	0.238462	-11.362592	381.138275	0.217658
11.440000	9.221313	189.584366	0.238598	-11.454091	381.852173	0.217975
11.450000	9.326707	189.292816	0.238436	-11.317381	381.374725	0.218248
11.460000	9.163783	189.382507	0.238575	-11.325454	381.769501	0.218506
11.470000	9.261353	189.131073	0.238502	-11.197894	381.345123	0.218848
11.480000	9.006382	189.292099	0.238625	-11.356672	381.725464	0.219106
11.490000	9.136629	189.022629	0.238625	-11.173673	381.345245	0.219442
11.500000	9.237421	188.603409	0.238747	-11.041268	381.074677	0.219627
11.510000	9.016047	189.022049	0.238871	-11.226420	381.649658	0.219899
11.520000	9.253989	188.904129	0.238953	-10.974528	381.145874	0.220140
11.530000	9.173908	189.292923	0.239059	-11.053648	381.480652	0.220241
11.540000	9.282985	189.049301	0.238899	-10.905634	381.033600	0.220393
11.550000	9.150436	189.697617	0.239069	-11.045036	381.631256	0.220556
11.560000	9.258132	189.535889	0.239022	-10.962148	381.494446	0.220607
11.570000	9.263194	189.549362	0.238901	-10.865805	381.370422	0.220638
11.580000	9.117299	189.955811	0.239123	-11.054724	381.670685	0.220873
11.590000	9.263194	189.662201	0.239021	-10.855579	381.187897	0.220946
11.600000	9.095668	189.863480	0.239011	-10.939005	381.451721	0.221029
11.610000	9.286206	189.430008	0.239042	-10.796373	380.828156	0.221013
11.620000	9.075418	190.020447	0.239160	-11.032118	381.474213	0.221077
11.630000	9.154578	189.758194	0.239076	-10.980448	380.938843	0.221038
11.640000	9.169766	189.741394	0.239046	-10.866882	380.710999	0.220935
11.650000	9.137549	190.211441	0.239070	-11.146224	381.006958	0.220883
11.660000	9.184033	190.024857	0.238985	-11.065489	380.621826	0.220689
11.670000	9.124203	190.619370	0.239049	-11.265172	380.958160	0.220597
11.680000	9.271939	190.412628	0.238985	-11.035348	380.237366	0.220505
11.690000	9.026632	190.919586	0.238979	-11.443865	380.913818	0.220418
11.700000	9.253989	190.848267	0.238940	-11.207582	380.514099	0.220316
11.710000	9.223154	190.926727	0.239046	-11.198969	380.291809	0.220266
11.720000	9.166545	191.174164	0.238926	-11.315228	380.422882	0.220239
11.730000	9.229597	191.112091	0.238878	-11.146762	380.086975	0.220229
11.740000	9.194159	191.659714	0.239122	-11.300695	380.306366	0.220265
11.750000	9.285286	191.218964	0.238804	-11.045036	379.485626	0.220243
11.760000	9.089225	191.787476	0.239000	-11.389503	380.144257	0.220285
11.770000	9.156420	191.615082	0.238867	-11.135459	379.348022	0.220291
11.780000	9.160101	191.696411	0.238785	-11.137074	379.147339	0.220305
11.790000	9.179892	191.980835	0.238921	-11.262481	379.238922	0.220275
11.800000	9.208426	191.923492	0.238663	-10.999287	378.998291	0.220337
11.810000	9.082321	192.359283	0.238804	-11.244720	378.942078	0.220242
11.820000	9.337293	191.789429	0.238705	-11.000362	378.503082	0.220161
11.830000	9.103952	192.740982	0.238760	-11.249563	379.041382	0.220231
11.840000	9.292649	192.397690	0.238815	-11.201661	378.579498	0.219993
11.850000	9.163323	192.460052	0.238553	-11.133306	378.653656	0.220001
11.860000	9.253069	192.546021	0.238632	-11.204352	378.708099	0.219865
11.870000	9.282524	192.411652	0.238591	-11.196279	378.395111	0.219717
11.880000	9.152738	192.455505	0.238519	-11.307155	378.634125	0.219641
11.890000	9.370430	192.152664	0.238528	-11.080021	377.897034	0.219480
11.900000	8.991194	192.541580	0.238445	-11.416415	378.838715	0.219367
11.910000	9.216250	192.233017	0.238469	-11.305002	378.319031	0.219157
11.920000	9.183574	192.236954	0.238453	-11.361515	378.513397	0.218971
11.930000	9.109015	192.188446	0.238085	-11.338909	378.582611	0.218878
11.940000	9.127885	192.056046	0.238219	-11.426642	378.571259	0.218692
11.950000	9.068514	192.129852	0.238283	-11.468086	378.826569	0.218561
11.960000	9.216710	191.594574	0.238097	-11.327607	378.448730	0.218296
11.970000	8.886260	192.110626	0.238200	-11.744736	379.375580	0.218240
11.980000	9.172988	191.577484	0.238117	-11.510067	378.913116	0.218086
11.990000	9.022030	191.553802	0.238071	-11.701677	379.199066	0.217946
12.000000	9.045503	191.417099	0.238053	-11.669922	379.313202	0.217788
12.010000	9.058849	191.325317	0.238094	-11.674766	379.577759	0.217711
12.020000	8.961279	191.166275	0.237923	-11.824933	379.954254	0.217591
12.030000	9.148596	190.632553	0.237957	-11.601028	379.639191	0.217416
12.040000	8.927682	190.863358	0.238157	-11.858303	380.579803	0.217539
12.050000	9.040900	190.245499	0.237918	-11.753348	380.025909	0.217478
12.060000	9.003160	190.215225	0.238050	-11.806095	380.482636	0.217465
12.070000	9.103492	189.954147	0.237966	-11.655390	380.363586	0.217491
12.080000	9.033536	190.060028	0.237963	-11.744198	380.332001	0.217433
12.090000	8.977847	190.012924	0.237933	-11.683916	380.500824	0.217430
12.100000	9.218091	189.673050	0.237909	-11.491767	380.082977	0.217329
12.110000	8.890862	190.018005	0.237861	-11.864223	380.887268	0.217323
12.120000	9.051946	189.568008	0.237820	-11.600490	380.530029	0.217201
12.130000	9.025712	189.837891	0.237897	-11.723745	380.945404	0.217196
12.140000	9.076338	189.523941	0.237803	-11.669922	380.838379	0.217055
12.150000	9.034917	189.658432	0.237777	-11.743660	381.044495	0.217091
12.160000	9.131106	189.666382	0.237935	-11.661310	380.985748	0.217106
12.170000	9.235120	189.336838	0.237760	-11.518680	380.574188	0.216973
12.180000	8.950233	189.916855	0.237813	-11.829238	381.337097	0.217147
12.190000	9.216710	189.530975	0.237751	-11.501994	380.850830	0.217074
12.200000	9.062991	189.600098	0.237780	-11.690913	381.185974	0.217084
12.210000	9.198301	189.225464	0.237731	-11.518680	380.600586	0.217093
12.220000	9.120981	189.232101	0.237850	-11.599952	380.798309	0.217089
12.230000	9.169766	189.194397	0.237649	-11.550973	380.472046	0.217084
12.240000	9.291729	188.957443	0.237599	-11.434177	380.224060	0.216941
12.250000	9.153197	189.542053	0.237830	-11.710827	380.991028	0.216999
12.260000	9.230058	189.044510	0.237515	-11.426104	380.797546	0.216822
12.270000	9.144453	189.641571	0.237402	-11.583805	381.089722	0.216872
12.280000	9.275161	189.235886	0.237507	-11.467009	381.028595	0.216741
12.290000	9.058389	189.595322	0.237340	-11.595646	381.386108	0.216818
12.300000	9.095668	189.199463	0.237308	-11.578423	381.317230	0.216738
12.310000	9.184954	188.903946	0.237200	-11.310922	380.899231	0.216810
12.320000	8.965421	189.117279	0.237290	-11.626325	381.402161	0.216884
12.330000	9.088764	188.808960	0.237073	-11.358825	380.773193	0.216962
12.340000	9.015126	189.036285	0.237307	-11.517603	381.008301	0.216957
12.350000	9.160562	188.805206	0.237039	-11.221037	380.394989	0.217012
12.360000	9.051485	189.197220	0.237204	-11.500379	380.952576	0.216987
12.370000	9.241103	189.380478	0.237013	-11.268402	380.608246	0.217084
12.380000	9.190937	189.192047	0.236921	-11.204352	380.580322	0.216872
12.390000	9.120521	190.006058	0.236890	-11.444942	380.881683	0.216926
12.400000	9.272399	189.958084	0.236588	-11.125771	380.478058	0.216921
12.410000	9.052866	190.236694	0.236683	-11.363130	380.797943	0.216757
12.420000	9.279303	190.180801	0.236453	-11.170982	379.786499	0.216720
12.430000	9.018348	190.549194	0.236386	-11.291007	380.397949	0.216752
12.440000	9.136168	190.184021	0.236388	-11.271093	379.734161	0.216421
12.450000	9.204284	190.350571	0.236172	-11.216194	379.011749	0.216408
12.460000	8.979689	190.693573	0.236168	-11.306078	379.378998	0.216312
12.470000	9.143993	190.725098	0.235923	-11.371742	378.510468	0.215968
12.480000	9.046883	190.943192	0.235928	-11.633860	379.019714	0.215715
12.490000	9.307377	191.033279	0.235770	-11.400268	378.238220	0.215512
12.500000	8.983370	191.524567	0.235715	-11.750656	378.981628	0.215282
12.510000	9.085543	191.847183	0.235461	-11.548819	378.280060	0.215200
12.520000	9.196000	191.680283	0.235495	-11.479926	378.126068	0.215010
12.530000	9.043201	192.365662	0.235192	-11.634399	378.304321	0.214970
12.540000	9.189096	192.320297	0.235089	-11.529443	377.762665	0.214728
12.550000	9.002240	192.647934	0.235034	-11.672613	378.349762	0.214597
12.560000	9.282064	192.312714	0.234897	-11.565505	377.601349	0.214400
12.570000	8.951613	192.986908	0.235010	-11.914279	378.139587	0.214306
12.580000	9.104873	192.751801	0.234511	-11.640857	377.485840	0.214295
12.590000	8.990273	192.411789	0.234293	-11.644625	377.537567	0.214182
12.600000	8.882118	192.718857	0.234475	-11.722668	377.461945	0.214114
12.610000	8.912954	192.278824	0.234306	-11.614484	377.195709	0.214108
12.620000	8.748650	192.548615	0.234176	-11.739353	377.574402	0.214093
12.630000	9.014667	191.909851	0.234125	-11.559047	376.990082	0.213984
12.640000	8.760615	192.718002	0.234147	-11.710289	377.935364	0.214136
12.650000	8.981529	192.296860	0.233981	-11.476159	377.684235	0.213983
12.660000	8.882118	192.370865	0.233961	-11.589187	377.844666	0.213949
12.670000	8.939648	192.406418	0.233974	-11.480464	378.149384	0.213912
12.680000	8.876135	192.194199	0.233754	-11.492306	378.039093	0.213911
12.690000	8.838856	192.484055	0.233582	-11.653775	378.281769	0.213873
12.700000	9.027553	192.062668	0.233666	-11.426104	377.651825	0.213735
12.710000	8.668568	192.460342	0.233456	-11.744736	378.327393	0.213790
12.720000	8.853583	192.140732	0.233394	-11.548819	377.620789	0.213688
12.730000	8.890862	192.233612	0.233453	-11.507915	377.660400	0.213655
12.740000	8.780406	192.419571	0.233267	-11.596723	377.677216	0.213499
12.750000	8.867391	192.369812	0.233082	-11.518141	377.400055	0.213481
12.760000	8.780866	192.945953	0.233082	-11.574655	377.520416	0.213399
12.770000	8.943789	192.677505	0.232880	-11.474006	377.034363	0.213180
12.780000	8.680074	193.568771	0.232784	-11.716210	377.612854	0.213272
12.790000	8.881198	193.325699	0.232816	-11.494997	377.127747	0.213047
12.800000	8.822747	193.380798	0.232723	-11.553664	377.098602	0.212964
12.810000	8.838856	193.535553	0.232707	-11.632246	376.998047	0.212819
12.820000	8.883499	193.552383	0.232704	-11.482617	377.071411	0.212773
12.830000	8.789610	193.705215	0.232658	-11.693604	377.243958	0.212699
12.840000	8.923539	193.366318	0.232391	-11.476697	376.499939	0.212536
12.850000	8.758314	194.037796	0.232499	-11.780797	377.332428	0.212506
12.860000	8.896846	193.885544	0.232362	-11.653775	376.604706	0.212361
12.870000	8.805718	193.804138	0.232276	-11.753348	376.889465	0.212245
12.880000	8.927682	193.954865	0.232223	-11.636552	376.746765	0.212248
12.890000	8.814003	193.958984	0.232316	-11.864223	376.571594	0.212078
12.900000	8.771661	193.881714	0.232168	-11.832467	376.801514	0.211958
12.910000	8.999478	193.749252	0.232090	-11.602105	375.928772	0.211946
12.920000	8.698023	194.235138	0.232308	-12.021925	376.776581	0.211852
12.930000	8.787309	193.928635	0.231891	-11.723745	376.265045	0.211804
12.940000	8.811702	194.091125	0.232017	-11.822241	376.654053	0.211765
12.950000	8.812622	193.908783	0.231825	-11.801788	376.514587	0.211696
12.960000	8.698943	193.961929	0.231929	-11.855073	376.865082	0.211701
12.970000	8.731621	194.030029	0.231876	-11.840541	377.055573	0.211680
12.980000	8.891323	193.546570	0.231863	-11.689298	376.741699	0.211648
12.990000	8.632209	194.112518	0.231946	-11.876603	377.352661	0.211710
13.000000	8.855885	193.649902	0.231895	-11.713519	376.829468	0.211640
13.010000	8.879356	193.794281	0.231979	-11.746351	377.054474	0.211582
13.020000	8.891323	193.599716	0.231884	-11.673151	376.770355	0.211586
13.030000	8.969103	193.661987	0.232122	-11.753348	377.039368	0.211595
13.040000	8.874754	193.520447	0.231981	-11.709212	377.040741	0.211540
13.050000	9.110856	193.004166	0.231959	-11.557970	376.417236	0.211523
13.060000	8.930443	193.416428	0.232267	-11.713519	376.864136	0.211561
13.070000	9.005001	192.909622	0.232043	-11.562276	376.561218	0.211426
13.080000	9.026632	193.658249	0.231898	-11.633322	376.768585	0.211474
13.090000	9.117299	193.632248	0.231843	-11.457859	376.885498	0.211372
13.100000	9.008223	194.025101	0.231809	-11.581114	377.372253	0.211332
13.110000	8.955756	194.198639	0.231682	-11.700062	377.238770	0.211265
13.120000	9.086003	193.699936	0.231590	-11.418030	376.827820	0.211287
13.130000	8.717813	193.958130	0.231683	-11.815244	377.336517	0.211280
13.140000	8.809401	193.137970	0.231446	-11.618252	376.901642	0.211340
13.150000	8.750030	193.268753	0.231598	-11.604796	376.784973	0.211521
13.160000	8.856805	192.690704	0.231465	-11.560661	376.565491	0.211638
13.170000	8.652459	192.740341	0.231489	-11.560122	377.491211	0.211829
13.180000	8.810781	192.822693	0.231645	-11.360439	377.433258	0.212053
13.190000	8.940568	192.354004	0.231541	-11.195202	377.481812	0.212073
13.200000	8.711370	192.854218	0.231487	-11.401883	378.567841	0.212307
13.210000	8.800656	192.401016	0.231530	-11.157527	378.396271	0.212468
13.220000	8.781326	192.628067	0.231470	-11.154297	378.961487	0.212636
13.230000	8.748650	192.225891	0.231352	-11.113929	378.572906	0.212921
13.240000	8.677773	192.182434	0.231473	-11.131153	379.256927	0.213190
13.250000	8.674090	191.974518	0.231309	-10.947078	378.903595	0.213627
13.260000	8.672710	191.403275	0.231323	-10.762465	378.615448	0.213793
13.270000	8.577901	191.853790	0.231388	-10.855041	378.963287	0.214179
13.280000	8.674551	191.310776	0.231305	-10.683883	378.637848	0.214265
13.290000	8.566395	191.367447	0.231210	-10.715639	379.084900	0.214425
13.300000	8.771661	191.296860	0.231201	-10.464285	378.576447	0.214500
13.310000	8.553509	191.551971	0.231266	-10.700031	379.475647	0.214492
13.320000	8.626226	191.481750	0.231150	-10.715639	379.306854	0.214427
13.330000	8.753251	191.280869	0.231315	-10.631136	379.246521	0.214267
13.340000	8.542003	191.744904	0.231194	-11.062797	379.781311	0.214085
13.350000	8.675932	191.588852	0.231029	-10.900251	379.126862	0.213855
13.360000	8.648778	192.013153	0.231234	-11.082712	379.391510	0.213715
13.370000	8.766599	191.687958	0.230991	-10.839970	378.943512	0.213459
13.380000	8.572378	192.274551	0.231090	-11.215117	379.344055	0.213332
13.390000	8.769360	192.333191	0.231063	-10.995519	378.783356	0.213212
13.400000	8.818145	192.155716	0.231190	-11.023507	378.519836	0.212896
13.410000	8.759695	192.826004	0.231160	-11.143532	378.507324	0.212912
13.420000	8.940108	192.519012	0.231281	-11.059569	378.117950	0.212659
13.430000	8.956676	193.019501	0.231241	-11.209197	378.028656	0.212581
13.440000	8.874294	192.605164	0.231064	-11.031042	377.689911	0.212343
13.450000	8.777184	193.405548	0.231140	-11.328684	378.113678	0.212317
13.460000	8.939648	193.215820	0.231120	-11.244181	377.525787	0.212003
13.470000	8.965881	193.223099	0.230998	-11.229110	377.529907	0.211845
13.480000	8.924920	193.558792	0.231103	-11.429871	377.673157	0.211673
13.490000	9.036757	193.288239	0.231051	-11.296390	377.469910	0.211435
13.500000	8.861868	193.510040	0.231000	-11.496074	377.913269	0.211341
13.510000	9.148596	193.297394	0.230935	-11.222114	377.293121	0.211219
13.520000	8.886721	193.790131	0.231068	-11.558509	378.006470	0.211040
13.530000	8.974626	193.500046	0.230870	-11.454630	377.503387	0.210914
13.540000	8.987052	193.652603	0.230874	-11.341601	377.504395	0.210894
13.550000	8.953455	193.846848	0.230810	-11.566582	377.617371	0.210735
13.560000	8.977387	193.733871	0.230595	-11.378740	377.510223	0.210580
13.570000	8.891783	193.850677	0.230825	-11.541284	377.872284	0.210569
13.580000	9.075878	193.543671	0.230558	-11.348060	377.150848	0.210426
13.590000	8.733001	193.854935	0.230553	-11.735048	377.866516	0.210365
13.600000	8.984291	193.350876	0.230663	-11.486385	377.276398	0.210267
13.610000	8.935966	193.245239	0.230573	-11.508990	377.194305	0.210185
13.620000	8.762456	193.117203	0.230568	-11.626864	377.551239	0.210037
13.630000	8.979228	192.798737	0.230600	-11.514912	377.700928	0.209981
13.640000	8.809861	192.911362	0.230558	-11.761421	378.169159	0.209897
13.650000	8.900527	192.290009	0.230380	-11.446556	377.864380	0.209715
13.660000	8.673170	192.537262	0.230637	-11.816859	379.057739	0.209726
13.670000	8.815384	191.904755	0.230519	-11.564429	378.805176	0.209563
13.680000	8.736683	191.729523	0.230527	-11.670998	379.224030	0.209528
13.690000	8.766138	191.453339	0.230470	-11.732357	379.528015	0.209459
13.700000	8.757394	191.059067	0.230487	-11.619866	379.688202	0.209297
13.710000	8.621163	191.060089	0.230457	-11.848077	380.055664	0.209238
13.720000	8.789150	190.481552	0.230408	-11.579499	379.671204	0.209122
13.730000	8.460541	190.954453	0.230486	-12.039686	380.537781	0.209062
13.740000	8.657062	190.623657	0.230345	-11.848615	379.957581	0.208913
13.750000	8.607817	190.722137	0.230439	-11.944958	380.207031	0.208810
13.760000	8.571918	190.732361	0.230251	-12.010622	380.517639	0.208752
13.770000	8.505183	190.578522	0.230265	-11.930425	380.603394	0.208622
13.780000	8.421420	190.717667	0.230321	-12.072518	380.943939	0.208634
13.790000	8.666266	190.146500	0.230189	-11.890596	380.520813	0.208435
13.800000	8.310964	190.734238	0.230316	-12.218917	381.181366	0.208486
13.810000	8.555810	190.180984	0.230210	-12.000934	380.713989	0.208406
13.820000	8.406693	190.330383	0.230318	-12.067675	380.949341	0.208314
13.830000	8.474808	190.034241	0.230359	-12.090280	380.843933	0.208284
13.840000	8.447654	190.206558	0.230452	-12.103736	381.004120	0.208276
13.850000	8.453637	190.155472	0.230574	-12.130109	381.304687	0.208304
13.860000	8.596311	189.615463	0.230598	-12.039686	380.747589	0.208278
13.870000	8.400249	190.116257	0.230794	-12.275970	381.417877	0.208562
13.880000	8.594009	189.469681	0.230878	-12.000934	380.761658	0.208662
13.890000	8.477109	189.628708	0.230837	-12.077363	380.988281	0.208976
13.900000	8.642795	189.833267	0.230991	-11.843232	381.000977	0.209251
13.910000	8.641874	190.298019	0.231034	-11.828162	381.227722	0.209485
13.920000	8.595390	190.521225	0.230988	-11.803403	381.195923	0.209682
13.930000	8.820446	190.243713	0.231100	-11.584882	380.600189	0.209782
13.940000	8.588947	190.703857	0.231172	-11.863685	381.058807	0.209994
13.950000	8.649698	189.923569	0.231158	-11.670460	380.297455	0.210089
13.960000	8.595850	189.787369	0.231338	-11.756039	380.391846	0.210282
13.970000	8.659823	189.211456	0.231509	-11.663463	379.939423	0.210389
13.980000	8.565935	189.266556	0.231559	-11.803941	379.906006	0.210477
13.990000	8.676392	189.294617	0.231796	-11.707598	379.986359	0.210644
14.000000	8.865549	189.227859	0.231821	-11.449247	379.685822	0.210740
14.010000	8.584345	189.915207	0.231910	-11.784565	380.777588	0.210835
14.020000	8.825048	189.753204	0.232029	-11.458398	380.555603	0.210938
14.030000	8.755552	190.281509	0.232105	-11.630631	381.075989	0.210988
14.040000	8.831491	190.074142	0.232092	-11.465933	380.780334	0.210974
14.050000	8.850822	190.418274	0.232274	-11.614484	380.965546	0.211107
14.060000	8.824589	190.225296	0.232228	-11.498227	380.745331	0.211185
14.070000	8.934585	189.792618	0.232216	-11.446018	379.950836	0.211071
14.080000	8.738523	190.250885	0.232488	-11.707060	380.363953	0.211273
14.090000	8.904209	189.866928	0.232390	-11.517603	379.575287	0.211265
14.100000	8.773502	190.144485	0.232498	-11.737201	379.769836	0.211309
14.110000	8.905129	189.767090	0.232547	-11.524600	379.553650	0.211306
14.120000	8.737144	190.349442	0.232573	-11.604796	379.927155	0.211446
14.130000	8.735763	190.378235	0.232591	-11.618789	379.930023	0.211442
14.140000	8.964500	190.352737	0.232661	-11.504685	379.694580	0.211451
14.150000	8.668568	190.850632	0.232923	-11.777030	380.466736	0.211534
14.160000	8.858645	190.473038	0.232803	-11.614484	379.953430	0.211505
14.170000	8.721496	190.726212	0.232920	-11.753348	380.190369	0.211682
14.180000	8.910192	190.361969	0.233008	-11.589725	379.572784	0.211755
14.190000	8.683756	190.697617	0.233118	-11.706522	379.721527	0.211967
14.200000	8.795134	190.539917	0.233188	-11.562814	379.569733	0.212171
14.210000	8.994876	190.447754	0.233158	-11.395424	379.179596	0.212307
14.220000	8.662585	191.077957	0.233275	-11.639242	379.841370	0.212509
14.230000	8.896385	190.826340	0.233315	-11.391656	379.390167	0.212636
14.240000	8.730700	191.204712	0.233356	-11.582728	379.686340	0.212816
14.250000	8.838395	190.990021	0.233327	-11.334066	379.078400	0.212784
14.260000	8.695722	191.450989	0.233534	-11.549896	379.439331	0.213006
14.270000	8.798355	191.306839	0.233621	-11.498227	378.951599	0.213047
14.280000	8.812622	191.059479	0.233535	-11.407804	378.529205	0.213109
14.290000	8.693881	191.453064	0.233760	-11.570887	378.815979	0.213337
14.300000	8.918937	191.245193	0.233840	-11.413186	378.414795	0.213391
14.310000	8.714592	191.496735	0.233819	-11.526215	378.706512	0.213542
14.320000	8.948392	191.351761	0.233885	-11.304463	378.243256	0.213658
14.330000	8.726558	191.881165	0.234057	-11.490152	378.985199	0.213787
14.340000	8.856805	191.896454	0.233943	-11.435792	378.637543	0.213864
14.350000	8.902369	191.800171	0.234176	-11.280242	378.536560	0.213968
14.360000	8.810781	192.249558	0.234157	-11.439559	378.982147	0.214153
14.370000	8.823208	191.974594	0.234095	-11.261404	378.417389	0.214291
14.380000	8.808940	192.100601	0.234351	-11.388966	378.901031	0.214635
14.390000	8.945170	191.756836	0.234285	-11.022430	378.265686	0.214841
14.400000	8.743587	192.062592	0.234414	-11.250101	378.878082	0.215124
14.410000	8.880737	191.836304	0.234450	-11.076254	378.301300	0.215366
14.420000	8.944250	191.716187	0.234438	-10.822208	378.055664	0.215596
14.430000	8.749570	191.842072	0.234582	-11.046651	378.301636	0.215744
14.440000	8.887180	191.884781	0.234612	-10.948693	377.903778	0.215879
14.450000	8.824128	192.186401	0.234715	-10.969146	378.269012	0.216055
14.460000	8.934585	191.856018	0.234593	-10.852349	377.892395	0.216026
14.470000	8.691580	192.489182	0.234774	-11.095630	378.762634	0.216188
14.480000	8.856344	192.252396	0.234799	-10.892716	378.466370	0.216243
14.490000	8.885799	192.107193	0.234838	-10.902943	378.443115	0.216201
14.500000	8.698023	192.275955	0.234919	-11.070332	378.795349	0.216398
14.510000	8.861407	192.013092	0.235041	-10.890563	378.638428	0.216405
14.520000	8.675932	192.263260	0.234999	-11.111776	378.959869	0.216445
14.530000	8.952994	191.716202	0.235011	-10.816826	378.342529	0.216417
14.540000	8.704926	192.309448	0.235247	-11.183899	378.975067	0.216515
14.550000	8.725177	191.940079	0.235101	-10.994442	378.391205	0.216502
14.560000	8.857265	192.073303	0.235207	-10.921781	378.349152	0.216473
14.570000	8.755552	192.333221	0.235278	-11.134382	378.486237	0.216510
14.580000	8.840696	192.472397	0.235124	-11.090247	378.016998	0.216388
14.590000	8.744047	192.896683	0.235286	-11.217808	378.395569	0.216500
14.600000	8.936886	192.409866	0.235202	-11.015972	377.816101	0.216379
14.610000	8.588026	193.141708	0.235269	-11.397577	378.506439	0.216428
14.620000	8.839316	192.948196	0.235237	-11.171520	377.966309	0.216406
14.630000	8.857265	192.936554	0.235260	-11.127386	377.885956	0.216439
14.640000	8.705847	193.219177	0.235241	-11.229110	377.888855	0.216494
14.650000	8.836555	193.173950	0.235399	-11.068180	377.740967	0.216611
14.660000	8.807099	193.529617	0.235406	-11.181746	378.052979	0.216804
14.670000	8.886721	193.031616	0.235410	-10.867420	377.562256	0.216934
14.680000	8.737603	193.688995	0.235547	-11.172058	378.316833	0.217271
14.690000	8.911573	193.233826	0.235648	-10.827053	377.941284	0.217466
14.700000	8.911113	192.918091	0.235623	-10.759773	377.687927	0.217688
14.710000	8.890402	192.768967	0.235861	-10.860961	377.548614	0.218024
14.720000	8.939187	192.742218	0.235846	-10.622525	377.198059	0.218138
14.730000	8.814003	193.165817	0.235760	-10.835664	377.535858	0.218294
14.740000	9.011445	192.958710	0.235744	-10.495502	377.214478	0.218370
14.750000	8.816304	193.937851	0.235830	-10.876570	377.863678	0.218485
14.760000	8.912494	193.870377	0.235638	-10.663968	377.486084	0.218446
14.770000	8.876135	194.167755	0.235597	-10.756544	377.579498	0.218482
14.780000	8.842538	194.249802	0.235691	-10.681192	377.600677	0.218553
14.790000	8.742206	194.345749	0.235511	-10.792067	377.246979	0.218550
14.800000	8.665346	194.423401	0.235575	-10.805523	377.340454	0.218664
14.810000	8.912494	193.908325	0.235591	-10.593460	376.495178	0.218678
14.820000	8.594930	194.378830	0.235656	-10.946002	377.099762	0.218824
14.830000	8.797894	193.944336	0.235686	-10.646745	376.744385	0.218801
14.840000	8.788690	194.061539	0.235826	-10.729632	376.796143	0.218814
14.850000	8.756013	194.162918	0.235688	-10.757083	376.868896	0.218799
14.860000	8.831491	194.227081	0.235780	-10.707027	376.909515	0.218823
14.870000	8.756474	194.486145	0.235792	-10.866344	377.156891	0.218713
14.880000	8.865549	194.092087	0.235621	-10.684421	376.784637	0.218482
14.890000	8.611959	194.823334	0.235719	-11.059029	377.618988	0.218507
14.900000	8.861407	194.444656	0.235685	-10.758698	377.097809	0.218355
14.910000	8.702166	194.490494	0.235594	-10.992827	377.133392	0.218186
14.920000	8.796514	194.282608	0.235674	-10.916937	376.866943	0.218174
14.930000	8.754632	194.432861	0.235734	-10.942772	376.677490	0.218039
14.940000	8.716893	194.425919	0.235646	-11.088095	376.913452	0.217872
14.950000	8.855885	194.132828	0.235751	-10.867420	376.184326	0.217758
14.960000	8.690199	194.709091	0.235818	-11.222652	376.937958	0.217722
14.970000	8.837015	194.376450	0.235774	-11.075715	376.290955	0.217459
14.980000	8.796054	194.746429	0.235700	-11.105856	376.517151	0.217502
14.990000	8.963120	194.630569	0.235758	-11.105318	376.322113	0.217255
15.000000	8.796974	194.883591	0.235675	-11.163985	376.311554	0.217126
